---------------STARTING POINT---------------
   05-May-2019 09:10:36

[Warning: Name is nonexistent or not a directory: Functions] 
[> In <a href="matlab:matlab.internal.language.introspective.errorDocCallback('path', 'C:\Program Files\MATLAB\R2017b\toolbox\matlab\general\path.m', 109)" style="font-weight:bold">path</a> (<a href="matlab: opentoline('C:\Program Files\MATLAB\R2017b\toolbox\matlab\general\path.m',109,0)">line 109</a>)
  In <a href="matlab:matlab.internal.language.introspective.errorDocCallback('addpath', 'C:\Program Files\MATLAB\R2017b\toolbox\matlab\general\addpath.m', 94)" style="font-weight:bold">addpath</a> (<a href="matlab: opentoline('C:\Program Files\MATLAB\R2017b\toolbox\matlab\general\addpath.m',94,0)">line 94</a>)
  In <a href="matlab:matlab.internal.language.introspective.errorDocCallback('big_switch', 'G:\MATLAB_big_switch\big_switch.m', 117)" style="font-weight:bold">big_switch</a> (<a href="matlab: opentoline('G:\MATLAB_big_switch\big_switch.m',117,0)">line 117</a>)
  In <a href="matlab:matlab.internal.language.introspective.errorDocCallback('do_fcn_type', 'G:\MATLAB_big_switch\do_fcn_type.m', 7)" style="font-weight:bold">do_fcn_type</a> (<a href="matlab: opentoline('G:\MATLAB_big_switch\do_fcn_type.m',7,0)">line 7</a>)
  In <a href="matlab:matlab.internal.language.introspective.errorDocCallback('CallingFunctionsScript', 'G:\MATLAB_big_switch\CallingFunctionsScript.m', 94)" style="font-weight:bold">CallingFunctionsScript</a> (<a href="matlab: opentoline('G:\MATLAB_big_switch\CallingFunctionsScript.m',94,0)">line 94</a>)
  In <a href="matlab:matlab.internal.language.introspective.errorDocCallback('big_switch', 'G:\MATLAB_big_switch\big_switch.m', 2)" style="font-weight:bold">big_switch</a> (<a href="matlab: opentoline('G:\MATLAB_big_switch\big_switch.m',2,0)">line 2</a>)] 
[Warning: Name is nonexistent or not a directory: Geometries] 
[> In <a href="matlab:matlab.internal.language.introspective.errorDocCallback('path', 'C:\Program Files\MATLAB\R2017b\toolbox\matlab\general\path.m', 109)" style="font-weight:bold">path</a> (<a href="matlab: opentoline('C:\Program Files\MATLAB\R2017b\toolbox\matlab\general\path.m',109,0)">line 109</a>)
  In <a href="matlab:matlab.internal.language.introspective.errorDocCallback('addpath', 'C:\Program Files\MATLAB\R2017b\toolbox\matlab\general\addpath.m', 94)" style="font-weight:bold">addpath</a> (<a href="matlab: opentoline('C:\Program Files\MATLAB\R2017b\toolbox\matlab\general\addpath.m',94,0)">line 94</a>)
  In <a href="matlab:matlab.internal.language.introspective.errorDocCallback('big_switch', 'G:\MATLAB_big_switch\big_switch.m', 118)" style="font-weight:bold">big_switch</a> (<a href="matlab: opentoline('G:\MATLAB_big_switch\big_switch.m',118,0)">line 118</a>)
  In <a href="matlab:matlab.internal.language.introspective.errorDocCallback('do_fcn_type', 'G:\MATLAB_big_switch\do_fcn_type.m', 7)" style="font-weight:bold">do_fcn_type</a> (<a href="matlab: opentoline('G:\MATLAB_big_switch\do_fcn_type.m',7,0)">line 7</a>)
  In <a href="matlab:matlab.internal.language.introspective.errorDocCallback('CallingFunctionsScript', 'G:\MATLAB_big_switch\CallingFunctionsScript.m', 94)" style="font-weight:bold">CallingFunctionsScript</a> (<a href="matlab: opentoline('G:\MATLAB_big_switch\CallingFunctionsScript.m',94,0)">line 94</a>)
  In <a href="matlab:matlab.internal.language.introspective.errorDocCallback('big_switch', 'G:\MATLAB_big_switch\big_switch.m', 2)" style="font-weight:bold">big_switch</a> (<a href="matlab: opentoline('G:\MATLAB_big_switch\big_switch.m',2,0)">line 2</a>)] 
WARNING: fnc_type = "select and load .data file" not executed yet
WARNING: it will be executed with sequence number = 20
{Error using <a href="matlab:matlab.internal.language.introspective.errorDocCallback('fopen')" style="font-weight:bold">fopen</a>
File identifier must be an integer-valued scalar of type double.

Error in <a href="matlab:matlab.internal.language.introspective.errorDocCallback('big_switch', 'G:\MATLAB_big_switch\big_switch.m', 131)" style="font-weight:bold">big_switch</a> (<a href="matlab: opentoline('G:\MATLAB_big_switch\big_switch.m',131,0)">line 131</a>)
            fid = fopen([ws.pathname,ws.filename],'r','b'); % per win

Error in <a href="matlab:matlab.internal.language.introspective.errorDocCallback('search_done_fcn', 'G:\MATLAB_big_switch\search_done_fcn.m', 27)" style="font-weight:bold">search_done_fcn</a> (<a href="matlab: opentoline('G:\MATLAB_big_switch\search_done_fcn.m',27,0)">line 27</a>)
            big_switch

Error in <a href="matlab:matlab.internal.language.introspective.errorDocCallback('get_field', 'G:\MATLAB_big_switch\get_field.m', 10)" style="font-weight:bold">get_field</a> (<a href="matlab: opentoline('G:\MATLAB_big_switch\get_field.m',10,0)">line 10</a>)
[ output,ws ] = search_done_fcn( string_fcn_type, output,ws, 1);

Error in <a href="matlab:matlab.internal.language.introspective.errorDocCallback('big_switch', 'G:\MATLAB_big_switch\big_switch.m', 314)" style="font-weight:bold">big_switch</a> (<a href="matlab: opentoline('G:\MATLAB_big_switch\big_switch.m',314,0)">line 314</a>)
                [Frame, output,ws] = get_field('Frame', 'select and load .data
                file' ,output,ws);

Error in <a href="matlab:matlab.internal.language.introspective.errorDocCallback('do_fcn_type', 'G:\MATLAB_big_switch\do_fcn_type.m', 7)" style="font-weight:bold">do_fcn_type</a> (<a href="matlab: opentoline('G:\MATLAB_big_switch\do_fcn_type.m',7,0)">line 7</a>)
    big_switch

Error in <a href="matlab:matlab.internal.language.introspective.errorDocCallback('big_switch', 'G:\MATLAB_big_switch\big_switch.m', 9)" style="font-weight:bold">big_switch</a> (<a href="matlab: opentoline('G:\MATLAB_big_switch\big_switch.m',9,0)">line 9</a>)
    [ output,ws ] = do_fcn_type( 'Signal Spectra', output,ws );
} 
INSERT_GUI
 
 
MexPlayDataConverter >>>
Elapsed time is 5.933609 seconds.
Play data converted.
 
 
Fnc_PlayAcquisition >>>
Play acquisition has not been generalized yet. Number of heads must be 10
new: return was commented
Count: 0 CountEw: 0
counts: 0 - photopeak counts: 0 - node: 1
Count: 0 CountEw: 0
counts: 0 - photopeak counts: 0 - node: 2
Count: 0 CountEw: 0
counts: 0 - photopeak counts: 0 - node: 3
Count: 0 CountEw: 0
counts: 0 - photopeak counts: 0 - node: 4
Count: 0 CountEw: 0
counts: 0 - photopeak counts: 0 - node: 5
Count: 0 CountEw: 0
counts: 0 - photopeak counts: 0 - node: 6
Count: 0 CountEw: 0
counts: 0 - photopeak counts: 0 - node: 7
Count: 0 CountEw: 0
counts: 0 - photopeak counts: 0 - node: 8
Count: 0 CountEw: 0
counts: 0 - photopeak counts: 0 - node: 9
Count: 0 CountEw: 0
counts: 0 - photopeak counts: 0 - node: 10
Count: 0 CountEw: 0
counts: 0 - photopeak counts: 0 - node: 11
Count: 0 CountEw: 0
counts: 0 - photopeak counts: 0 - node: 12
Count: 0 CountEw: 0
counts: 0 - photopeak counts: 0 - node: 13
Count: 0 CountEw: 0
counts: 0 - photopeak counts: 0 - node: 14
Count: 0 CountEw: 0
counts: 0 - photopeak counts: 0 - node: 15
Count: 830000 CountEw: 334488
counts: 829925 - photopeak counts: 334488 - node: 16
Elapsed time is 232.133119 seconds.
close all
uiimport('G:\Linearity_Uniformity_Corr\Clinical_GUI\KilledNodeWork\Corr\CorrHead16.mat',1)
figures, imagesc(squeeze(LRF(73,:,:))),colormap
{Undefined function or variable 'figures'.
} 
figure, imagesc(squeeze(LRF(73,:,:))),colormap

ans =

    0.2422    0.1504    0.6603
    0.2504    0.1650    0.7076
    0.2578    0.1818    0.7511
    0.2647    0.1978    0.7952
    0.2706    0.2147    0.8364
    0.2751    0.2342    0.8710
    0.2783    0.2559    0.8991
    0.2803    0.2782    0.9221
    0.2813    0.3006    0.9414
    0.2810    0.3228    0.9579
    0.2795    0.3447    0.9717
    0.2760    0.3667    0.9829
    0.2699    0.3892    0.9906
    0.2602    0.4123    0.9952
    0.2440    0.4358    0.9988
    0.2206    0.4603    0.9973
    0.1963    0.4847    0.9892
    0.1834    0.5074    0.9798
    0.1786    0.5289    0.9682
    0.1764    0.5499    0.9520
    0.1687    0.5703    0.9359
    0.1540    0.5902    0.9218
    0.1460    0.6091    0.9079
    0.1380    0.6276    0.8973
    0.1248    0.6459    0.8883
    0.1113    0.6635    0.8763
    0.0952    0.6798    0.8598
    0.0689    0.6948    0.8394
    0.0297    0.7082    0.8163
    0.0036    0.7203    0.7917
    0.0067    0.7312    0.7660
    0.0433    0.7411    0.7394
    0.0964    0.7500    0.7120
    0.1408    0.7584    0.6842
    0.1717    0.7670    0.6554
    0.1938    0.7758    0.6251
    0.2161    0.7843    0.5923
    0.2470    0.7918    0.5567
    0.2906    0.7973    0.5188
    0.3406    0.8008    0.4789
    0.3909    0.8029    0.4354
    0.4456    0.8024    0.3909
    0.5044    0.7993    0.3480
    0.5616    0.7942    0.3045
    0.6174    0.7876    0.2612
    0.6720    0.7793    0.2227
    0.7242    0.7698    0.1910
    0.7738    0.7598    0.1646
    0.8203    0.7498    0.1535
    0.8634    0.7406    0.1596
    0.9035    0.7330    0.1774
    0.9393    0.7288    0.2100
    0.9728    0.7298    0.2394
    0.9956    0.7434    0.2371
    0.9970    0.7659    0.2199
    0.9952    0.7893    0.2028
    0.9892    0.8136    0.1885
    0.9786    0.8386    0.1766
    0.9676    0.8639    0.1643
    0.9610    0.8890    0.1537
    0.9597    0.9135    0.1423
    0.9628    0.9373    0.1265
    0.9691    0.9606    0.1064
    0.9769    0.9839    0.0805

INSERT_GUI
 
 
Fnc_GenerateLRFandCorrections >>>
HEREEEEEE
modified in an random way
HERE
LRFwriteFromSfit :: Load LRF sfit data from floodfield measurement and reconstruction - implemented by Michele Occhipinti.
load _TMP\LRF_2017-10-26_bulmaraw_H03_F.mat
LRFwriteFromSfit :: Creating starting LRF set...
Elapsed time is 8.727427 seconds.
 
NULL PART: Playing acquisitions with Anger (centroid) Method for looking at the pre-images (BaseLine checking).
Count: 2240000
Count: 2070000
Count: 3970000
Elapsed time is 136.691807 seconds.
 
FIRST PART: Playing acquisitions with Statistic Method for spectrum check.
Count: 2240000
FIRST PART: Playing acquisitions with Statistic Method for line search method.
Count: 2240000
Count: 2070000
Elapsed time is 168.292380 seconds.
 
FIRST PART: Line search.
 
START /WAIT _GenerateCorrections/LinTabGen3GaussFit.exe 512 5 2 18 19 _GenerateCorrections/peaks.txt 1024 1024 _GenerateCorrections/image.raw 1 1 1.9243 1e-5 40 1000 1 _GenerateCorrections/

ans =

     []

continue
START /WAIT _GenerateCorrections/LinTabGen3GaussFit.exe 505 5 2 40 41 _GenerateCorrections/peaks.txt 1024 1024 _GenerateCorrections/image.raw 1 1 1.65 1e-5 40 1000 1 _GenerateCorrections/

ans =

     []

continue
Elapsed time is 1085.262197 seconds.
 
FIRST PART: Generation of LUT table.
Elapsed time is 1096.370309 seconds.
 
SECOND PART: Playing acquisitions with Statistic Method for generating SpectrumMax matrix.
Count: 2240000 Count in EnergyWindow: 1110025
Count: 2070000 Count in EnergyWindow: 943922
Elapsed time is 1115.413426 seconds.
 
SECOND PART: Running SpectrumMaxGenerator.
 
Elapsed time is 1153.980010 seconds.
 
THIRD PART: Playing acquisitions with Statistic Method using energy correction and windowing for generating final LRF set.
Count: 2240000 Count in EnergyWindow: 1134276
Count: 2070000 Count in EnergyWindow: 966625
Elapsed time is 1172.760373 seconds.
 
THIRD PART - ORIGINALLY: Smoothing LRF set: Generating final LRF set, but not for Clinical case.
Elapsed time is 1172.760699 seconds.
 
FOURTH PART: Playing acquisitions with Statistic Method using final LRFs. - In Clinical case using starting LRFs.
Count: 2240000
Count: 2070000
Elapsed time is 1190.865083 seconds.
 
FOURTH PART: Line search.
START /WAIT _GenerateCorrections/LinTabGen3GaussFit.exe 512 5 2 19 20 _GenerateCorrections/peaks.txt 1024 1024 _GenerateCorrections/image.raw 1 1 1.5909 1e-5 40 1000 1 _GenerateCorrections/

ans =

     []

continue
START /WAIT _GenerateCorrections/LinTabGen3GaussFit.exe 512 5 2 40 41 _GenerateCorrections/peaks.txt 1024 1024 _GenerateCorrections/image.raw 1 1 1.3551 1e-5 40 1000 1 _GenerateCorrections/

ans =

     []

continue
 
FOURTH PART: Generating linearity correction tables.
HalfIline: 22.000000 HalfJline: 11.500000
Elapsed time is 2813.246436 seconds.
 
FOURTH PART: Generating energy correction table.
 
FOURTH PART: Playing flood acquisition with Statistic Method using linearity and energy correction for generating uniformity calibration.
Count: 3970000 Count in EnergyWindow: 1943645
 
FOURTH PART: Generating uniformity correction table.
 
FINISHING: Re-playing acquisitions.
Count: 2240000 Count in EnergyWindow: 1037283
Count: 2070000 Count in EnergyWindow: 887704
Count: 3970000 Count in EnergyWindow: 1943645
 
FINISHING: Saving corrections.
Elapsed time is 2942.858929 seconds.
{Error using <a href="matlab:matlab.internal.language.introspective.errorDocCallback('matlab.ui.control.UIControl/set')" style="font-weight:bold">matlab.ui.control.UIControl/set</a>
Invalid or deleted object.

Error in <a href="matlab:matlab.internal.language.introspective.errorDocCallback('INSERT_GUI>AbleButtons', 'G:\Linearity_Uniformity_Corr\Clinical_GUI\INSERT_GUI.m', 675)" style="font-weight:bold">INSERT_GUI>AbleButtons</a> (<a href="matlab: opentoline('G:\Linearity_Uniformity_Corr\Clinical_GUI\INSERT_GUI.m',675,0)">line 675</a>)
set(handles.Edit_NumHeads,'Enable',onoff);

Error in <a href="matlab:matlab.internal.language.introspective.errorDocCallback('INSERT_GUI>RunCalibration_Callback', 'G:\Linearity_Uniformity_Corr\Clinical_GUI\INSERT_GUI.m', 440)" style="font-weight:bold">INSERT_GUI>RunCalibration_Callback</a> (<a href="matlab: opentoline('G:\Linearity_Uniformity_Corr\Clinical_GUI\INSERT_GUI.m',440,0)">line 440</a>)
AbleButtons(handles,'on');

Error in <a href="matlab:matlab.internal.language.introspective.errorDocCallback('gui_mainfcn', 'C:\Program Files\MATLAB\R2017b\toolbox\matlab\guide\gui_mainfcn.m', 95)" style="font-weight:bold">gui_mainfcn</a> (<a href="matlab: opentoline('C:\Program Files\MATLAB\R2017b\toolbox\matlab\guide\gui_mainfcn.m',95,0)">line 95</a>)
        feval(varargin{:});

Error in <a href="matlab:matlab.internal.language.introspective.errorDocCallback('INSERT_GUI', 'G:\Linearity_Uniformity_Corr\Clinical_GUI\INSERT_GUI.m', 17)" style="font-weight:bold">INSERT_GUI</a> (<a href="matlab: opentoline('G:\Linearity_Uniformity_Corr\Clinical_GUI\INSERT_GUI.m',17,0)">line 17</a>)
    gui_mainfcn(gui_State, varargin{:});

Error in
<a href="matlab:matlab.internal.language.introspective.errorDocCallback('matlab.graphics.internal.figfile.FigFile/read>@(hObject,eventdata)INSERT_GUI(''RunCalibration_Callback'',hObject,eventdata,guidata(hObject))')" style="font-weight:bold">matlab.graphics.internal.figfile.FigFile/read>@(hObject,eventdata)INSERT_GUI('RunCalibration_Callback',hObject,eventdata,guidata(hObject))</a>} 
Error while evaluating DestroyedObject Callback.

INSERT_GUI
 
 
MexPlayDataConverter >>>
Elapsed time is 1.960369 seconds.
Play data converted.
 
 
Fnc_PlayAcquisition >>>
Play acquisition has not been generalized yet. Number of heads must be 10
new: return was commented
Count: 0 CountEw: 0
counts: 0 - photopeak counts: 0 - node: 1
Count: 0 CountEw: 0
counts: 0 - photopeak counts: 0 - node: 2
Count: 630000 CountEw: 279146
counts: 629973 - photopeak counts: 279146 - node: 3
Elapsed time is 21.089190 seconds.
load('G:\Linearity_Uniformity_Corr\Clinical_GUI\KilledNodeWork\Corr\CorrHead03.mat')
figure, imagesc(squeeze(LRF(73,:,:))),colormap

ans =

    0.2422    0.1504    0.6603
    0.2504    0.1650    0.7076
    0.2578    0.1818    0.7511
    0.2647    0.1978    0.7952
    0.2706    0.2147    0.8364
    0.2751    0.2342    0.8710
    0.2783    0.2559    0.8991
    0.2803    0.2782    0.9221
    0.2813    0.3006    0.9414
    0.2810    0.3228    0.9579
    0.2795    0.3447    0.9717
    0.2760    0.3667    0.9829
    0.2699    0.3892    0.9906
    0.2602    0.4123    0.9952
    0.2440    0.4358    0.9988
    0.2206    0.4603    0.9973
    0.1963    0.4847    0.9892
    0.1834    0.5074    0.9798
    0.1786    0.5289    0.9682
    0.1764    0.5499    0.9520
    0.1687    0.5703    0.9359
    0.1540    0.5902    0.9218
    0.1460    0.6091    0.9079
    0.1380    0.6276    0.8973
    0.1248    0.6459    0.8883
    0.1113    0.6635    0.8763
    0.0952    0.6798    0.8598
    0.0689    0.6948    0.8394
    0.0297    0.7082    0.8163
    0.0036    0.7203    0.7917
    0.0067    0.7312    0.7660
    0.0433    0.7411    0.7394
    0.0964    0.7500    0.7120
    0.1408    0.7584    0.6842
    0.1717    0.7670    0.6554
    0.1938    0.7758    0.6251
    0.2161    0.7843    0.5923
    0.2470    0.7918    0.5567
    0.2906    0.7973    0.5188
    0.3406    0.8008    0.4789
    0.3909    0.8029    0.4354
    0.4456    0.8024    0.3909
    0.5044    0.7993    0.3480
    0.5616    0.7942    0.3045
    0.6174    0.7876    0.2612
    0.6720    0.7793    0.2227
    0.7242    0.7698    0.1910
    0.7738    0.7598    0.1646
    0.8203    0.7498    0.1535
    0.8634    0.7406    0.1596
    0.9035    0.7330    0.1774
    0.9393    0.7288    0.2100
    0.9728    0.7298    0.2394
    0.9956    0.7434    0.2371
    0.9970    0.7659    0.2199
    0.9952    0.7893    0.2028
    0.9892    0.8136    0.1885
    0.9786    0.8386    0.1766
    0.9676    0.8639    0.1643
    0.9610    0.8890    0.1537
    0.9597    0.9135    0.1423
    0.9628    0.9373    0.1265
    0.9691    0.9606    0.1064
    0.9769    0.9839    0.0805

figure, for i = 1:72, hold on, imagesc(squeeze(LRF(i,:,:))),colormap, hold off, end;

ans =

    0.2422    0.1504    0.6603
    0.2504    0.1650    0.7076
    0.2578    0.1818    0.7511
    0.2647    0.1978    0.7952
    0.2706    0.2147    0.8364
    0.2751    0.2342    0.8710
    0.2783    0.2559    0.8991
    0.2803    0.2782    0.9221
    0.2813    0.3006    0.9414
    0.2810    0.3228    0.9579
    0.2795    0.3447    0.9717
    0.2760    0.3667    0.9829
    0.2699    0.3892    0.9906
    0.2602    0.4123    0.9952
    0.2440    0.4358    0.9988
    0.2206    0.4603    0.9973
    0.1963    0.4847    0.9892
    0.1834    0.5074    0.9798
    0.1786    0.5289    0.9682
    0.1764    0.5499    0.9520
    0.1687    0.5703    0.9359
    0.1540    0.5902    0.9218
    0.1460    0.6091    0.9079
    0.1380    0.6276    0.8973
    0.1248    0.6459    0.8883
    0.1113    0.6635    0.8763
    0.0952    0.6798    0.8598
    0.0689    0.6948    0.8394
    0.0297    0.7082    0.8163
    0.0036    0.7203    0.7917
    0.0067    0.7312    0.7660
    0.0433    0.7411    0.7394
    0.0964    0.7500    0.7120
    0.1408    0.7584    0.6842
    0.1717    0.7670    0.6554
    0.1938    0.7758    0.6251
    0.2161    0.7843    0.5923
    0.2470    0.7918    0.5567
    0.2906    0.7973    0.5188
    0.3406    0.8008    0.4789
    0.3909    0.8029    0.4354
    0.4456    0.8024    0.3909
    0.5044    0.7993    0.3480
    0.5616    0.7942    0.3045
    0.6174    0.7876    0.2612
    0.6720    0.7793    0.2227
    0.7242    0.7698    0.1910
    0.7738    0.7598    0.1646
    0.8203    0.7498    0.1535
    0.8634    0.7406    0.1596
    0.9035    0.7330    0.1774
    0.9393    0.7288    0.2100
    0.9728    0.7298    0.2394
    0.9956    0.7434    0.2371
    0.9970    0.7659    0.2199
    0.9952    0.7893    0.2028
    0.9892    0.8136    0.1885
    0.9786    0.8386    0.1766
    0.9676    0.8639    0.1643
    0.9610    0.8890    0.1537
    0.9597    0.9135    0.1423
    0.9628    0.9373    0.1265
    0.9691    0.9606    0.1064
    0.9769    0.9839    0.0805


ans =

    0.2422    0.1504    0.6603
    0.2504    0.1650    0.7076
    0.2578    0.1818    0.7511
    0.2647    0.1978    0.7952
    0.2706    0.2147    0.8364
    0.2751    0.2342    0.8710
    0.2783    0.2559    0.8991
    0.2803    0.2782    0.9221
    0.2813    0.3006    0.9414
    0.2810    0.3228    0.9579
    0.2795    0.3447    0.9717
    0.2760    0.3667    0.9829
    0.2699    0.3892    0.9906
    0.2602    0.4123    0.9952
    0.2440    0.4358    0.9988
    0.2206    0.4603    0.9973
    0.1963    0.4847    0.9892
    0.1834    0.5074    0.9798
    0.1786    0.5289    0.9682
    0.1764    0.5499    0.9520
    0.1687    0.5703    0.9359
    0.1540    0.5902    0.9218
    0.1460    0.6091    0.9079
    0.1380    0.6276    0.8973
    0.1248    0.6459    0.8883
    0.1113    0.6635    0.8763
    0.0952    0.6798    0.8598
    0.0689    0.6948    0.8394
    0.0297    0.7082    0.8163
    0.0036    0.7203    0.7917
    0.0067    0.7312    0.7660
    0.0433    0.7411    0.7394
    0.0964    0.7500    0.7120
    0.1408    0.7584    0.6842
    0.1717    0.7670    0.6554
    0.1938    0.7758    0.6251
    0.2161    0.7843    0.5923
    0.2470    0.7918    0.5567
    0.2906    0.7973    0.5188
    0.3406    0.8008    0.4789
    0.3909    0.8029    0.4354
    0.4456    0.8024    0.3909
    0.5044    0.7993    0.3480
    0.5616    0.7942    0.3045
    0.6174    0.7876    0.2612
    0.6720    0.7793    0.2227
    0.7242    0.7698    0.1910
    0.7738    0.7598    0.1646
    0.8203    0.7498    0.1535
    0.8634    0.7406    0.1596
    0.9035    0.7330    0.1774
    0.9393    0.7288    0.2100
    0.9728    0.7298    0.2394
    0.9956    0.7434    0.2371
    0.9970    0.7659    0.2199
    0.9952    0.7893    0.2028
    0.9892    0.8136    0.1885
    0.9786    0.8386    0.1766
    0.9676    0.8639    0.1643
    0.9610    0.8890    0.1537
    0.9597    0.9135    0.1423
    0.9628    0.9373    0.1265
    0.9691    0.9606    0.1064
    0.9769    0.9839    0.0805


ans =

    0.2422    0.1504    0.6603
    0.2504    0.1650    0.7076
    0.2578    0.1818    0.7511
    0.2647    0.1978    0.7952
    0.2706    0.2147    0.8364
    0.2751    0.2342    0.8710
    0.2783    0.2559    0.8991
    0.2803    0.2782    0.9221
    0.2813    0.3006    0.9414
    0.2810    0.3228    0.9579
    0.2795    0.3447    0.9717
    0.2760    0.3667    0.9829
    0.2699    0.3892    0.9906
    0.2602    0.4123    0.9952
    0.2440    0.4358    0.9988
    0.2206    0.4603    0.9973
    0.1963    0.4847    0.9892
    0.1834    0.5074    0.9798
    0.1786    0.5289    0.9682
    0.1764    0.5499    0.9520
    0.1687    0.5703    0.9359
    0.1540    0.5902    0.9218
    0.1460    0.6091    0.9079
    0.1380    0.6276    0.8973
    0.1248    0.6459    0.8883
    0.1113    0.6635    0.8763
    0.0952    0.6798    0.8598
    0.0689    0.6948    0.8394
    0.0297    0.7082    0.8163
    0.0036    0.7203    0.7917
    0.0067    0.7312    0.7660
    0.0433    0.7411    0.7394
    0.0964    0.7500    0.7120
    0.1408    0.7584    0.6842
    0.1717    0.7670    0.6554
    0.1938    0.7758    0.6251
    0.2161    0.7843    0.5923
    0.2470    0.7918    0.5567
    0.2906    0.7973    0.5188
    0.3406    0.8008    0.4789
    0.3909    0.8029    0.4354
    0.4456    0.8024    0.3909
    0.5044    0.7993    0.3480
    0.5616    0.7942    0.3045
    0.6174    0.7876    0.2612
    0.6720    0.7793    0.2227
    0.7242    0.7698    0.1910
    0.7738    0.7598    0.1646
    0.8203    0.7498    0.1535
    0.8634    0.7406    0.1596
    0.9035    0.7330    0.1774
    0.9393    0.7288    0.2100
    0.9728    0.7298    0.2394
    0.9956    0.7434    0.2371
    0.9970    0.7659    0.2199
    0.9952    0.7893    0.2028
    0.9892    0.8136    0.1885
    0.9786    0.8386    0.1766
    0.9676    0.8639    0.1643
    0.9610    0.8890    0.1537
    0.9597    0.9135    0.1423
    0.9628    0.9373    0.1265
    0.9691    0.9606    0.1064
    0.9769    0.9839    0.0805


ans =

    0.2422    0.1504    0.6603
    0.2504    0.1650    0.7076
    0.2578    0.1818    0.7511
    0.2647    0.1978    0.7952
    0.2706    0.2147    0.8364
    0.2751    0.2342    0.8710
    0.2783    0.2559    0.8991
    0.2803    0.2782    0.9221
    0.2813    0.3006    0.9414
    0.2810    0.3228    0.9579
    0.2795    0.3447    0.9717
    0.2760    0.3667    0.9829
    0.2699    0.3892    0.9906
    0.2602    0.4123    0.9952
    0.2440    0.4358    0.9988
    0.2206    0.4603    0.9973
    0.1963    0.4847    0.9892
    0.1834    0.5074    0.9798
    0.1786    0.5289    0.9682
    0.1764    0.5499    0.9520
    0.1687    0.5703    0.9359
    0.1540    0.5902    0.9218
    0.1460    0.6091    0.9079
    0.1380    0.6276    0.8973
    0.1248    0.6459    0.8883
    0.1113    0.6635    0.8763
    0.0952    0.6798    0.8598
    0.0689    0.6948    0.8394
    0.0297    0.7082    0.8163
    0.0036    0.7203    0.7917
    0.0067    0.7312    0.7660
    0.0433    0.7411    0.7394
    0.0964    0.7500    0.7120
    0.1408    0.7584    0.6842
    0.1717    0.7670    0.6554
    0.1938    0.7758    0.6251
    0.2161    0.7843    0.5923
    0.2470    0.7918    0.5567
    0.2906    0.7973    0.5188
    0.3406    0.8008    0.4789
    0.3909    0.8029    0.4354
    0.4456    0.8024    0.3909
    0.5044    0.7993    0.3480
    0.5616    0.7942    0.3045
    0.6174    0.7876    0.2612
    0.6720    0.7793    0.2227
    0.7242    0.7698    0.1910
    0.7738    0.7598    0.1646
    0.8203    0.7498    0.1535
    0.8634    0.7406    0.1596
    0.9035    0.7330    0.1774
    0.9393    0.7288    0.2100
    0.9728    0.7298    0.2394
    0.9956    0.7434    0.2371
    0.9970    0.7659    0.2199
    0.9952    0.7893    0.2028
    0.9892    0.8136    0.1885
    0.9786    0.8386    0.1766
    0.9676    0.8639    0.1643
    0.9610    0.8890    0.1537
    0.9597    0.9135    0.1423
    0.9628    0.9373    0.1265
    0.9691    0.9606    0.1064
    0.9769    0.9839    0.0805


ans =

    0.2422    0.1504    0.6603
    0.2504    0.1650    0.7076
    0.2578    0.1818    0.7511
    0.2647    0.1978    0.7952
    0.2706    0.2147    0.8364
    0.2751    0.2342    0.8710
    0.2783    0.2559    0.8991
    0.2803    0.2782    0.9221
    0.2813    0.3006    0.9414
    0.2810    0.3228    0.9579
    0.2795    0.3447    0.9717
    0.2760    0.3667    0.9829
    0.2699    0.3892    0.9906
    0.2602    0.4123    0.9952
    0.2440    0.4358    0.9988
    0.2206    0.4603    0.9973
    0.1963    0.4847    0.9892
    0.1834    0.5074    0.9798
    0.1786    0.5289    0.9682
    0.1764    0.5499    0.9520
    0.1687    0.5703    0.9359
    0.1540    0.5902    0.9218
    0.1460    0.6091    0.9079
    0.1380    0.6276    0.8973
    0.1248    0.6459    0.8883
    0.1113    0.6635    0.8763
    0.0952    0.6798    0.8598
    0.0689    0.6948    0.8394
    0.0297    0.7082    0.8163
    0.0036    0.7203    0.7917
    0.0067    0.7312    0.7660
    0.0433    0.7411    0.7394
    0.0964    0.7500    0.7120
    0.1408    0.7584    0.6842
    0.1717    0.7670    0.6554
    0.1938    0.7758    0.6251
    0.2161    0.7843    0.5923
    0.2470    0.7918    0.5567
    0.2906    0.7973    0.5188
    0.3406    0.8008    0.4789
    0.3909    0.8029    0.4354
    0.4456    0.8024    0.3909
    0.5044    0.7993    0.3480
    0.5616    0.7942    0.3045
    0.6174    0.7876    0.2612
    0.6720    0.7793    0.2227
    0.7242    0.7698    0.1910
    0.7738    0.7598    0.1646
    0.8203    0.7498    0.1535
    0.8634    0.7406    0.1596
    0.9035    0.7330    0.1774
    0.9393    0.7288    0.2100
    0.9728    0.7298    0.2394
    0.9956    0.7434    0.2371
    0.9970    0.7659    0.2199
    0.9952    0.7893    0.2028
    0.9892    0.8136    0.1885
    0.9786    0.8386    0.1766
    0.9676    0.8639    0.1643
    0.9610    0.8890    0.1537
    0.9597    0.9135    0.1423
    0.9628    0.9373    0.1265
    0.9691    0.9606    0.1064
    0.9769    0.9839    0.0805


ans =

    0.2422    0.1504    0.6603
    0.2504    0.1650    0.7076
    0.2578    0.1818    0.7511
    0.2647    0.1978    0.7952
    0.2706    0.2147    0.8364
    0.2751    0.2342    0.8710
    0.2783    0.2559    0.8991
    0.2803    0.2782    0.9221
    0.2813    0.3006    0.9414
    0.2810    0.3228    0.9579
    0.2795    0.3447    0.9717
    0.2760    0.3667    0.9829
    0.2699    0.3892    0.9906
    0.2602    0.4123    0.9952
    0.2440    0.4358    0.9988
    0.2206    0.4603    0.9973
    0.1963    0.4847    0.9892
    0.1834    0.5074    0.9798
    0.1786    0.5289    0.9682
    0.1764    0.5499    0.9520
    0.1687    0.5703    0.9359
    0.1540    0.5902    0.9218
    0.1460    0.6091    0.9079
    0.1380    0.6276    0.8973
    0.1248    0.6459    0.8883
    0.1113    0.6635    0.8763
    0.0952    0.6798    0.8598
    0.0689    0.6948    0.8394
    0.0297    0.7082    0.8163
    0.0036    0.7203    0.7917
    0.0067    0.7312    0.7660
    0.0433    0.7411    0.7394
    0.0964    0.7500    0.7120
    0.1408    0.7584    0.6842
    0.1717    0.7670    0.6554
    0.1938    0.7758    0.6251
    0.2161    0.7843    0.5923
    0.2470    0.7918    0.5567
    0.2906    0.7973    0.5188
    0.3406    0.8008    0.4789
    0.3909    0.8029    0.4354
    0.4456    0.8024    0.3909
    0.5044    0.7993    0.3480
    0.5616    0.7942    0.3045
    0.6174    0.7876    0.2612
    0.6720    0.7793    0.2227
    0.7242    0.7698    0.1910
    0.7738    0.7598    0.1646
    0.8203    0.7498    0.1535
    0.8634    0.7406    0.1596
    0.9035    0.7330    0.1774
    0.9393    0.7288    0.2100
    0.9728    0.7298    0.2394
    0.9956    0.7434    0.2371
    0.9970    0.7659    0.2199
    0.9952    0.7893    0.2028
    0.9892    0.8136    0.1885
    0.9786    0.8386    0.1766
    0.9676    0.8639    0.1643
    0.9610    0.8890    0.1537
    0.9597    0.9135    0.1423
    0.9628    0.9373    0.1265
    0.9691    0.9606    0.1064
    0.9769    0.9839    0.0805


ans =

    0.2422    0.1504    0.6603
    0.2504    0.1650    0.7076
    0.2578    0.1818    0.7511
    0.2647    0.1978    0.7952
    0.2706    0.2147    0.8364
    0.2751    0.2342    0.8710
    0.2783    0.2559    0.8991
    0.2803    0.2782    0.9221
    0.2813    0.3006    0.9414
    0.2810    0.3228    0.9579
    0.2795    0.3447    0.9717
    0.2760    0.3667    0.9829
    0.2699    0.3892    0.9906
    0.2602    0.4123    0.9952
    0.2440    0.4358    0.9988
    0.2206    0.4603    0.9973
    0.1963    0.4847    0.9892
    0.1834    0.5074    0.9798
    0.1786    0.5289    0.9682
    0.1764    0.5499    0.9520
    0.1687    0.5703    0.9359
    0.1540    0.5902    0.9218
    0.1460    0.6091    0.9079
    0.1380    0.6276    0.8973
    0.1248    0.6459    0.8883
    0.1113    0.6635    0.8763
    0.0952    0.6798    0.8598
    0.0689    0.6948    0.8394
    0.0297    0.7082    0.8163
    0.0036    0.7203    0.7917
    0.0067    0.7312    0.7660
    0.0433    0.7411    0.7394
    0.0964    0.7500    0.7120
    0.1408    0.7584    0.6842
    0.1717    0.7670    0.6554
    0.1938    0.7758    0.6251
    0.2161    0.7843    0.5923
    0.2470    0.7918    0.5567
    0.2906    0.7973    0.5188
    0.3406    0.8008    0.4789
    0.3909    0.8029    0.4354
    0.4456    0.8024    0.3909
    0.5044    0.7993    0.3480
    0.5616    0.7942    0.3045
    0.6174    0.7876    0.2612
    0.6720    0.7793    0.2227
    0.7242    0.7698    0.1910
    0.7738    0.7598    0.1646
    0.8203    0.7498    0.1535
    0.8634    0.7406    0.1596
    0.9035    0.7330    0.1774
    0.9393    0.7288    0.2100
    0.9728    0.7298    0.2394
    0.9956    0.7434    0.2371
    0.9970    0.7659    0.2199
    0.9952    0.7893    0.2028
    0.9892    0.8136    0.1885
    0.9786    0.8386    0.1766
    0.9676    0.8639    0.1643
    0.9610    0.8890    0.1537
    0.9597    0.9135    0.1423
    0.9628    0.9373    0.1265
    0.9691    0.9606    0.1064
    0.9769    0.9839    0.0805


ans =

    0.2422    0.1504    0.6603
    0.2504    0.1650    0.7076
    0.2578    0.1818    0.7511
    0.2647    0.1978    0.7952
    0.2706    0.2147    0.8364
    0.2751    0.2342    0.8710
    0.2783    0.2559    0.8991
    0.2803    0.2782    0.9221
    0.2813    0.3006    0.9414
    0.2810    0.3228    0.9579
    0.2795    0.3447    0.9717
    0.2760    0.3667    0.9829
    0.2699    0.3892    0.9906
    0.2602    0.4123    0.9952
    0.2440    0.4358    0.9988
    0.2206    0.4603    0.9973
    0.1963    0.4847    0.9892
    0.1834    0.5074    0.9798
    0.1786    0.5289    0.9682
    0.1764    0.5499    0.9520
    0.1687    0.5703    0.9359
    0.1540    0.5902    0.9218
    0.1460    0.6091    0.9079
    0.1380    0.6276    0.8973
    0.1248    0.6459    0.8883
    0.1113    0.6635    0.8763
    0.0952    0.6798    0.8598
    0.0689    0.6948    0.8394
    0.0297    0.7082    0.8163
    0.0036    0.7203    0.7917
    0.0067    0.7312    0.7660
    0.0433    0.7411    0.7394
    0.0964    0.7500    0.7120
    0.1408    0.7584    0.6842
    0.1717    0.7670    0.6554
    0.1938    0.7758    0.6251
    0.2161    0.7843    0.5923
    0.2470    0.7918    0.5567
    0.2906    0.7973    0.5188
    0.3406    0.8008    0.4789
    0.3909    0.8029    0.4354
    0.4456    0.8024    0.3909
    0.5044    0.7993    0.3480
    0.5616    0.7942    0.3045
    0.6174    0.7876    0.2612
    0.6720    0.7793    0.2227
    0.7242    0.7698    0.1910
    0.7738    0.7598    0.1646
    0.8203    0.7498    0.1535
    0.8634    0.7406    0.1596
    0.9035    0.7330    0.1774
    0.9393    0.7288    0.2100
    0.9728    0.7298    0.2394
    0.9956    0.7434    0.2371
    0.9970    0.7659    0.2199
    0.9952    0.7893    0.2028
    0.9892    0.8136    0.1885
    0.9786    0.8386    0.1766
    0.9676    0.8639    0.1643
    0.9610    0.8890    0.1537
    0.9597    0.9135    0.1423
    0.9628    0.9373    0.1265
    0.9691    0.9606    0.1064
    0.9769    0.9839    0.0805


ans =

    0.2422    0.1504    0.6603
    0.2504    0.1650    0.7076
    0.2578    0.1818    0.7511
    0.2647    0.1978    0.7952
    0.2706    0.2147    0.8364
    0.2751    0.2342    0.8710
    0.2783    0.2559    0.8991
    0.2803    0.2782    0.9221
    0.2813    0.3006    0.9414
    0.2810    0.3228    0.9579
    0.2795    0.3447    0.9717
    0.2760    0.3667    0.9829
    0.2699    0.3892    0.9906
    0.2602    0.4123    0.9952
    0.2440    0.4358    0.9988
    0.2206    0.4603    0.9973
    0.1963    0.4847    0.9892
    0.1834    0.5074    0.9798
    0.1786    0.5289    0.9682
    0.1764    0.5499    0.9520
    0.1687    0.5703    0.9359
    0.1540    0.5902    0.9218
    0.1460    0.6091    0.9079
    0.1380    0.6276    0.8973
    0.1248    0.6459    0.8883
    0.1113    0.6635    0.8763
    0.0952    0.6798    0.8598
    0.0689    0.6948    0.8394
    0.0297    0.7082    0.8163
    0.0036    0.7203    0.7917
    0.0067    0.7312    0.7660
    0.0433    0.7411    0.7394
    0.0964    0.7500    0.7120
    0.1408    0.7584    0.6842
    0.1717    0.7670    0.6554
    0.1938    0.7758    0.6251
    0.2161    0.7843    0.5923
    0.2470    0.7918    0.5567
    0.2906    0.7973    0.5188
    0.3406    0.8008    0.4789
    0.3909    0.8029    0.4354
    0.4456    0.8024    0.3909
    0.5044    0.7993    0.3480
    0.5616    0.7942    0.3045
    0.6174    0.7876    0.2612
    0.6720    0.7793    0.2227
    0.7242    0.7698    0.1910
    0.7738    0.7598    0.1646
    0.8203    0.7498    0.1535
    0.8634    0.7406    0.1596
    0.9035    0.7330    0.1774
    0.9393    0.7288    0.2100
    0.9728    0.7298    0.2394
    0.9956    0.7434    0.2371
    0.9970    0.7659    0.2199
    0.9952    0.7893    0.2028
    0.9892    0.8136    0.1885
    0.9786    0.8386    0.1766
    0.9676    0.8639    0.1643
    0.9610    0.8890    0.1537
    0.9597    0.9135    0.1423
    0.9628    0.9373    0.1265
    0.9691    0.9606    0.1064
    0.9769    0.9839    0.0805


ans =

    0.2422    0.1504    0.6603
    0.2504    0.1650    0.7076
    0.2578    0.1818    0.7511
    0.2647    0.1978    0.7952
    0.2706    0.2147    0.8364
    0.2751    0.2342    0.8710
    0.2783    0.2559    0.8991
    0.2803    0.2782    0.9221
    0.2813    0.3006    0.9414
    0.2810    0.3228    0.9579
    0.2795    0.3447    0.9717
    0.2760    0.3667    0.9829
    0.2699    0.3892    0.9906
    0.2602    0.4123    0.9952
    0.2440    0.4358    0.9988
    0.2206    0.4603    0.9973
    0.1963    0.4847    0.9892
    0.1834    0.5074    0.9798
    0.1786    0.5289    0.9682
    0.1764    0.5499    0.9520
    0.1687    0.5703    0.9359
    0.1540    0.5902    0.9218
    0.1460    0.6091    0.9079
    0.1380    0.6276    0.8973
    0.1248    0.6459    0.8883
    0.1113    0.6635    0.8763
    0.0952    0.6798    0.8598
    0.0689    0.6948    0.8394
    0.0297    0.7082    0.8163
    0.0036    0.7203    0.7917
    0.0067    0.7312    0.7660
    0.0433    0.7411    0.7394
    0.0964    0.7500    0.7120
    0.1408    0.7584    0.6842
    0.1717    0.7670    0.6554
    0.1938    0.7758    0.6251
    0.2161    0.7843    0.5923
    0.2470    0.7918    0.5567
    0.2906    0.7973    0.5188
    0.3406    0.8008    0.4789
    0.3909    0.8029    0.4354
    0.4456    0.8024    0.3909
    0.5044    0.7993    0.3480
    0.5616    0.7942    0.3045
    0.6174    0.7876    0.2612
    0.6720    0.7793    0.2227
    0.7242    0.7698    0.1910
    0.7738    0.7598    0.1646
    0.8203    0.7498    0.1535
    0.8634    0.7406    0.1596
    0.9035    0.7330    0.1774
    0.9393    0.7288    0.2100
    0.9728    0.7298    0.2394
    0.9956    0.7434    0.2371
    0.9970    0.7659    0.2199
    0.9952    0.7893    0.2028
    0.9892    0.8136    0.1885
    0.9786    0.8386    0.1766
    0.9676    0.8639    0.1643
    0.9610    0.8890    0.1537
    0.9597    0.9135    0.1423
    0.9628    0.9373    0.1265
    0.9691    0.9606    0.1064
    0.9769    0.9839    0.0805


ans =

    0.2422    0.1504    0.6603
    0.2504    0.1650    0.7076
    0.2578    0.1818    0.7511
    0.2647    0.1978    0.7952
    0.2706    0.2147    0.8364
    0.2751    0.2342    0.8710
    0.2783    0.2559    0.8991
    0.2803    0.2782    0.9221
    0.2813    0.3006    0.9414
    0.2810    0.3228    0.9579
    0.2795    0.3447    0.9717
    0.2760    0.3667    0.9829
    0.2699    0.3892    0.9906
    0.2602    0.4123    0.9952
    0.2440    0.4358    0.9988
    0.2206    0.4603    0.9973
    0.1963    0.4847    0.9892
    0.1834    0.5074    0.9798
    0.1786    0.5289    0.9682
    0.1764    0.5499    0.9520
    0.1687    0.5703    0.9359
    0.1540    0.5902    0.9218
    0.1460    0.6091    0.9079
    0.1380    0.6276    0.8973
    0.1248    0.6459    0.8883
    0.1113    0.6635    0.8763
    0.0952    0.6798    0.8598
    0.0689    0.6948    0.8394
    0.0297    0.7082    0.8163
    0.0036    0.7203    0.7917
    0.0067    0.7312    0.7660
    0.0433    0.7411    0.7394
    0.0964    0.7500    0.7120
    0.1408    0.7584    0.6842
    0.1717    0.7670    0.6554
    0.1938    0.7758    0.6251
    0.2161    0.7843    0.5923
    0.2470    0.7918    0.5567
    0.2906    0.7973    0.5188
    0.3406    0.8008    0.4789
    0.3909    0.8029    0.4354
    0.4456    0.8024    0.3909
    0.5044    0.7993    0.3480
    0.5616    0.7942    0.3045
    0.6174    0.7876    0.2612
    0.6720    0.7793    0.2227
    0.7242    0.7698    0.1910
    0.7738    0.7598    0.1646
    0.8203    0.7498    0.1535
    0.8634    0.7406    0.1596
    0.9035    0.7330    0.1774
    0.9393    0.7288    0.2100
    0.9728    0.7298    0.2394
    0.9956    0.7434    0.2371
    0.9970    0.7659    0.2199
    0.9952    0.7893    0.2028
    0.9892    0.8136    0.1885
    0.9786    0.8386    0.1766
    0.9676    0.8639    0.1643
    0.9610    0.8890    0.1537
    0.9597    0.9135    0.1423
    0.9628    0.9373    0.1265
    0.9691    0.9606    0.1064
    0.9769    0.9839    0.0805


ans =

    0.2422    0.1504    0.6603
    0.2504    0.1650    0.7076
    0.2578    0.1818    0.7511
    0.2647    0.1978    0.7952
    0.2706    0.2147    0.8364
    0.2751    0.2342    0.8710
    0.2783    0.2559    0.8991
    0.2803    0.2782    0.9221
    0.2813    0.3006    0.9414
    0.2810    0.3228    0.9579
    0.2795    0.3447    0.9717
    0.2760    0.3667    0.9829
    0.2699    0.3892    0.9906
    0.2602    0.4123    0.9952
    0.2440    0.4358    0.9988
    0.2206    0.4603    0.9973
    0.1963    0.4847    0.9892
    0.1834    0.5074    0.9798
    0.1786    0.5289    0.9682
    0.1764    0.5499    0.9520
    0.1687    0.5703    0.9359
    0.1540    0.5902    0.9218
    0.1460    0.6091    0.9079
    0.1380    0.6276    0.8973
    0.1248    0.6459    0.8883
    0.1113    0.6635    0.8763
    0.0952    0.6798    0.8598
    0.0689    0.6948    0.8394
    0.0297    0.7082    0.8163
    0.0036    0.7203    0.7917
    0.0067    0.7312    0.7660
    0.0433    0.7411    0.7394
    0.0964    0.7500    0.7120
    0.1408    0.7584    0.6842
    0.1717    0.7670    0.6554
    0.1938    0.7758    0.6251
    0.2161    0.7843    0.5923
    0.2470    0.7918    0.5567
    0.2906    0.7973    0.5188
    0.3406    0.8008    0.4789
    0.3909    0.8029    0.4354
    0.4456    0.8024    0.3909
    0.5044    0.7993    0.3480
    0.5616    0.7942    0.3045
    0.6174    0.7876    0.2612
    0.6720    0.7793    0.2227
    0.7242    0.7698    0.1910
    0.7738    0.7598    0.1646
    0.8203    0.7498    0.1535
    0.8634    0.7406    0.1596
    0.9035    0.7330    0.1774
    0.9393    0.7288    0.2100
    0.9728    0.7298    0.2394
    0.9956    0.7434    0.2371
    0.9970    0.7659    0.2199
    0.9952    0.7893    0.2028
    0.9892    0.8136    0.1885
    0.9786    0.8386    0.1766
    0.9676    0.8639    0.1643
    0.9610    0.8890    0.1537
    0.9597    0.9135    0.1423
    0.9628    0.9373    0.1265
    0.9691    0.9606    0.1064
    0.9769    0.9839    0.0805


ans =

    0.2422    0.1504    0.6603
    0.2504    0.1650    0.7076
    0.2578    0.1818    0.7511
    0.2647    0.1978    0.7952
    0.2706    0.2147    0.8364
    0.2751    0.2342    0.8710
    0.2783    0.2559    0.8991
    0.2803    0.2782    0.9221
    0.2813    0.3006    0.9414
    0.2810    0.3228    0.9579
    0.2795    0.3447    0.9717
    0.2760    0.3667    0.9829
    0.2699    0.3892    0.9906
    0.2602    0.4123    0.9952
    0.2440    0.4358    0.9988
    0.2206    0.4603    0.9973
    0.1963    0.4847    0.9892
    0.1834    0.5074    0.9798
    0.1786    0.5289    0.9682
    0.1764    0.5499    0.9520
    0.1687    0.5703    0.9359
    0.1540    0.5902    0.9218
    0.1460    0.6091    0.9079
    0.1380    0.6276    0.8973
    0.1248    0.6459    0.8883
    0.1113    0.6635    0.8763
    0.0952    0.6798    0.8598
    0.0689    0.6948    0.8394
    0.0297    0.7082    0.8163
    0.0036    0.7203    0.7917
    0.0067    0.7312    0.7660
    0.0433    0.7411    0.7394
    0.0964    0.7500    0.7120
    0.1408    0.7584    0.6842
    0.1717    0.7670    0.6554
    0.1938    0.7758    0.6251
    0.2161    0.7843    0.5923
    0.2470    0.7918    0.5567
    0.2906    0.7973    0.5188
    0.3406    0.8008    0.4789
    0.3909    0.8029    0.4354
    0.4456    0.8024    0.3909
    0.5044    0.7993    0.3480
    0.5616    0.7942    0.3045
    0.6174    0.7876    0.2612
    0.6720    0.7793    0.2227
    0.7242    0.7698    0.1910
    0.7738    0.7598    0.1646
    0.8203    0.7498    0.1535
    0.8634    0.7406    0.1596
    0.9035    0.7330    0.1774
    0.9393    0.7288    0.2100
    0.9728    0.7298    0.2394
    0.9956    0.7434    0.2371
    0.9970    0.7659    0.2199
    0.9952    0.7893    0.2028
    0.9892    0.8136    0.1885
    0.9786    0.8386    0.1766
    0.9676    0.8639    0.1643
    0.9610    0.8890    0.1537
    0.9597    0.9135    0.1423
    0.9628    0.9373    0.1265
    0.9691    0.9606    0.1064
    0.9769    0.9839    0.0805


ans =

    0.2422    0.1504    0.6603
    0.2504    0.1650    0.7076
    0.2578    0.1818    0.7511
    0.2647    0.1978    0.7952
    0.2706    0.2147    0.8364
    0.2751    0.2342    0.8710
    0.2783    0.2559    0.8991
    0.2803    0.2782    0.9221
    0.2813    0.3006    0.9414
    0.2810    0.3228    0.9579
    0.2795    0.3447    0.9717
    0.2760    0.3667    0.9829
    0.2699    0.3892    0.9906
    0.2602    0.4123    0.9952
    0.2440    0.4358    0.9988
    0.2206    0.4603    0.9973
    0.1963    0.4847    0.9892
    0.1834    0.5074    0.9798
    0.1786    0.5289    0.9682
    0.1764    0.5499    0.9520
    0.1687    0.5703    0.9359
    0.1540    0.5902    0.9218
    0.1460    0.6091    0.9079
    0.1380    0.6276    0.8973
    0.1248    0.6459    0.8883
    0.1113    0.6635    0.8763
    0.0952    0.6798    0.8598
    0.0689    0.6948    0.8394
    0.0297    0.7082    0.8163
    0.0036    0.7203    0.7917
    0.0067    0.7312    0.7660
    0.0433    0.7411    0.7394
    0.0964    0.7500    0.7120
    0.1408    0.7584    0.6842
    0.1717    0.7670    0.6554
    0.1938    0.7758    0.6251
    0.2161    0.7843    0.5923
    0.2470    0.7918    0.5567
    0.2906    0.7973    0.5188
    0.3406    0.8008    0.4789
    0.3909    0.8029    0.4354
    0.4456    0.8024    0.3909
    0.5044    0.7993    0.3480
    0.5616    0.7942    0.3045
    0.6174    0.7876    0.2612
    0.6720    0.7793    0.2227
    0.7242    0.7698    0.1910
    0.7738    0.7598    0.1646
    0.8203    0.7498    0.1535
    0.8634    0.7406    0.1596
    0.9035    0.7330    0.1774
    0.9393    0.7288    0.2100
    0.9728    0.7298    0.2394
    0.9956    0.7434    0.2371
    0.9970    0.7659    0.2199
    0.9952    0.7893    0.2028
    0.9892    0.8136    0.1885
    0.9786    0.8386    0.1766
    0.9676    0.8639    0.1643
    0.9610    0.8890    0.1537
    0.9597    0.9135    0.1423
    0.9628    0.9373    0.1265
    0.9691    0.9606    0.1064
    0.9769    0.9839    0.0805


ans =

    0.2422    0.1504    0.6603
    0.2504    0.1650    0.7076
    0.2578    0.1818    0.7511
    0.2647    0.1978    0.7952
    0.2706    0.2147    0.8364
    0.2751    0.2342    0.8710
    0.2783    0.2559    0.8991
    0.2803    0.2782    0.9221
    0.2813    0.3006    0.9414
    0.2810    0.3228    0.9579
    0.2795    0.3447    0.9717
    0.2760    0.3667    0.9829
    0.2699    0.3892    0.9906
    0.2602    0.4123    0.9952
    0.2440    0.4358    0.9988
    0.2206    0.4603    0.9973
    0.1963    0.4847    0.9892
    0.1834    0.5074    0.9798
    0.1786    0.5289    0.9682
    0.1764    0.5499    0.9520
    0.1687    0.5703    0.9359
    0.1540    0.5902    0.9218
    0.1460    0.6091    0.9079
    0.1380    0.6276    0.8973
    0.1248    0.6459    0.8883
    0.1113    0.6635    0.8763
    0.0952    0.6798    0.8598
    0.0689    0.6948    0.8394
    0.0297    0.7082    0.8163
    0.0036    0.7203    0.7917
    0.0067    0.7312    0.7660
    0.0433    0.7411    0.7394
    0.0964    0.7500    0.7120
    0.1408    0.7584    0.6842
    0.1717    0.7670    0.6554
    0.1938    0.7758    0.6251
    0.2161    0.7843    0.5923
    0.2470    0.7918    0.5567
    0.2906    0.7973    0.5188
    0.3406    0.8008    0.4789
    0.3909    0.8029    0.4354
    0.4456    0.8024    0.3909
    0.5044    0.7993    0.3480
    0.5616    0.7942    0.3045
    0.6174    0.7876    0.2612
    0.6720    0.7793    0.2227
    0.7242    0.7698    0.1910
    0.7738    0.7598    0.1646
    0.8203    0.7498    0.1535
    0.8634    0.7406    0.1596
    0.9035    0.7330    0.1774
    0.9393    0.7288    0.2100
    0.9728    0.7298    0.2394
    0.9956    0.7434    0.2371
    0.9970    0.7659    0.2199
    0.9952    0.7893    0.2028
    0.9892    0.8136    0.1885
    0.9786    0.8386    0.1766
    0.9676    0.8639    0.1643
    0.9610    0.8890    0.1537
    0.9597    0.9135    0.1423
    0.9628    0.9373    0.1265
    0.9691    0.9606    0.1064
    0.9769    0.9839    0.0805


ans =

    0.2422    0.1504    0.6603
    0.2504    0.1650    0.7076
    0.2578    0.1818    0.7511
    0.2647    0.1978    0.7952
    0.2706    0.2147    0.8364
    0.2751    0.2342    0.8710
    0.2783    0.2559    0.8991
    0.2803    0.2782    0.9221
    0.2813    0.3006    0.9414
    0.2810    0.3228    0.9579
    0.2795    0.3447    0.9717
    0.2760    0.3667    0.9829
    0.2699    0.3892    0.9906
    0.2602    0.4123    0.9952
    0.2440    0.4358    0.9988
    0.2206    0.4603    0.9973
    0.1963    0.4847    0.9892
    0.1834    0.5074    0.9798
    0.1786    0.5289    0.9682
    0.1764    0.5499    0.9520
    0.1687    0.5703    0.9359
    0.1540    0.5902    0.9218
    0.1460    0.6091    0.9079
    0.1380    0.6276    0.8973
    0.1248    0.6459    0.8883
    0.1113    0.6635    0.8763
    0.0952    0.6798    0.8598
    0.0689    0.6948    0.8394
    0.0297    0.7082    0.8163
    0.0036    0.7203    0.7917
    0.0067    0.7312    0.7660
    0.0433    0.7411    0.7394
    0.0964    0.7500    0.7120
    0.1408    0.7584    0.6842
    0.1717    0.7670    0.6554
    0.1938    0.7758    0.6251
    0.2161    0.7843    0.5923
    0.2470    0.7918    0.5567
    0.2906    0.7973    0.5188
    0.3406    0.8008    0.4789
    0.3909    0.8029    0.4354
    0.4456    0.8024    0.3909
    0.5044    0.7993    0.3480
    0.5616    0.7942    0.3045
    0.6174    0.7876    0.2612
    0.6720    0.7793    0.2227
    0.7242    0.7698    0.1910
    0.7738    0.7598    0.1646
    0.8203    0.7498    0.1535
    0.8634    0.7406    0.1596
    0.9035    0.7330    0.1774
    0.9393    0.7288    0.2100
    0.9728    0.7298    0.2394
    0.9956    0.7434    0.2371
    0.9970    0.7659    0.2199
    0.9952    0.7893    0.2028
    0.9892    0.8136    0.1885
    0.9786    0.8386    0.1766
    0.9676    0.8639    0.1643
    0.9610    0.8890    0.1537
    0.9597    0.9135    0.1423
    0.9628    0.9373    0.1265
    0.9691    0.9606    0.1064
    0.9769    0.9839    0.0805


ans =

    0.2422    0.1504    0.6603
    0.2504    0.1650    0.7076
    0.2578    0.1818    0.7511
    0.2647    0.1978    0.7952
    0.2706    0.2147    0.8364
    0.2751    0.2342    0.8710
    0.2783    0.2559    0.8991
    0.2803    0.2782    0.9221
    0.2813    0.3006    0.9414
    0.2810    0.3228    0.9579
    0.2795    0.3447    0.9717
    0.2760    0.3667    0.9829
    0.2699    0.3892    0.9906
    0.2602    0.4123    0.9952
    0.2440    0.4358    0.9988
    0.2206    0.4603    0.9973
    0.1963    0.4847    0.9892
    0.1834    0.5074    0.9798
    0.1786    0.5289    0.9682
    0.1764    0.5499    0.9520
    0.1687    0.5703    0.9359
    0.1540    0.5902    0.9218
    0.1460    0.6091    0.9079
    0.1380    0.6276    0.8973
    0.1248    0.6459    0.8883
    0.1113    0.6635    0.8763
    0.0952    0.6798    0.8598
    0.0689    0.6948    0.8394
    0.0297    0.7082    0.8163
    0.0036    0.7203    0.7917
    0.0067    0.7312    0.7660
    0.0433    0.7411    0.7394
    0.0964    0.7500    0.7120
    0.1408    0.7584    0.6842
    0.1717    0.7670    0.6554
    0.1938    0.7758    0.6251
    0.2161    0.7843    0.5923
    0.2470    0.7918    0.5567
    0.2906    0.7973    0.5188
    0.3406    0.8008    0.4789
    0.3909    0.8029    0.4354
    0.4456    0.8024    0.3909
    0.5044    0.7993    0.3480
    0.5616    0.7942    0.3045
    0.6174    0.7876    0.2612
    0.6720    0.7793    0.2227
    0.7242    0.7698    0.1910
    0.7738    0.7598    0.1646
    0.8203    0.7498    0.1535
    0.8634    0.7406    0.1596
    0.9035    0.7330    0.1774
    0.9393    0.7288    0.2100
    0.9728    0.7298    0.2394
    0.9956    0.7434    0.2371
    0.9970    0.7659    0.2199
    0.9952    0.7893    0.2028
    0.9892    0.8136    0.1885
    0.9786    0.8386    0.1766
    0.9676    0.8639    0.1643
    0.9610    0.8890    0.1537
    0.9597    0.9135    0.1423
    0.9628    0.9373    0.1265
    0.9691    0.9606    0.1064
    0.9769    0.9839    0.0805


ans =

    0.2422    0.1504    0.6603
    0.2504    0.1650    0.7076
    0.2578    0.1818    0.7511
    0.2647    0.1978    0.7952
    0.2706    0.2147    0.8364
    0.2751    0.2342    0.8710
    0.2783    0.2559    0.8991
    0.2803    0.2782    0.9221
    0.2813    0.3006    0.9414
    0.2810    0.3228    0.9579
    0.2795    0.3447    0.9717
    0.2760    0.3667    0.9829
    0.2699    0.3892    0.9906
    0.2602    0.4123    0.9952
    0.2440    0.4358    0.9988
    0.2206    0.4603    0.9973
    0.1963    0.4847    0.9892
    0.1834    0.5074    0.9798
    0.1786    0.5289    0.9682
    0.1764    0.5499    0.9520
    0.1687    0.5703    0.9359
    0.1540    0.5902    0.9218
    0.1460    0.6091    0.9079
    0.1380    0.6276    0.8973
    0.1248    0.6459    0.8883
    0.1113    0.6635    0.8763
    0.0952    0.6798    0.8598
    0.0689    0.6948    0.8394
    0.0297    0.7082    0.8163
    0.0036    0.7203    0.7917
    0.0067    0.7312    0.7660
    0.0433    0.7411    0.7394
    0.0964    0.7500    0.7120
    0.1408    0.7584    0.6842
    0.1717    0.7670    0.6554
    0.1938    0.7758    0.6251
    0.2161    0.7843    0.5923
    0.2470    0.7918    0.5567
    0.2906    0.7973    0.5188
    0.3406    0.8008    0.4789
    0.3909    0.8029    0.4354
    0.4456    0.8024    0.3909
    0.5044    0.7993    0.3480
    0.5616    0.7942    0.3045
    0.6174    0.7876    0.2612
    0.6720    0.7793    0.2227
    0.7242    0.7698    0.1910
    0.7738    0.7598    0.1646
    0.8203    0.7498    0.1535
    0.8634    0.7406    0.1596
    0.9035    0.7330    0.1774
    0.9393    0.7288    0.2100
    0.9728    0.7298    0.2394
    0.9956    0.7434    0.2371
    0.9970    0.7659    0.2199
    0.9952    0.7893    0.2028
    0.9892    0.8136    0.1885
    0.9786    0.8386    0.1766
    0.9676    0.8639    0.1643
    0.9610    0.8890    0.1537
    0.9597    0.9135    0.1423
    0.9628    0.9373    0.1265
    0.9691    0.9606    0.1064
    0.9769    0.9839    0.0805


ans =

    0.2422    0.1504    0.6603
    0.2504    0.1650    0.7076
    0.2578    0.1818    0.7511
    0.2647    0.1978    0.7952
    0.2706    0.2147    0.8364
    0.2751    0.2342    0.8710
    0.2783    0.2559    0.8991
    0.2803    0.2782    0.9221
    0.2813    0.3006    0.9414
    0.2810    0.3228    0.9579
    0.2795    0.3447    0.9717
    0.2760    0.3667    0.9829
    0.2699    0.3892    0.9906
    0.2602    0.4123    0.9952
    0.2440    0.4358    0.9988
    0.2206    0.4603    0.9973
    0.1963    0.4847    0.9892
    0.1834    0.5074    0.9798
    0.1786    0.5289    0.9682
    0.1764    0.5499    0.9520
    0.1687    0.5703    0.9359
    0.1540    0.5902    0.9218
    0.1460    0.6091    0.9079
    0.1380    0.6276    0.8973
    0.1248    0.6459    0.8883
    0.1113    0.6635    0.8763
    0.0952    0.6798    0.8598
    0.0689    0.6948    0.8394
    0.0297    0.7082    0.8163
    0.0036    0.7203    0.7917
    0.0067    0.7312    0.7660
    0.0433    0.7411    0.7394
    0.0964    0.7500    0.7120
    0.1408    0.7584    0.6842
    0.1717    0.7670    0.6554
    0.1938    0.7758    0.6251
    0.2161    0.7843    0.5923
    0.2470    0.7918    0.5567
    0.2906    0.7973    0.5188
    0.3406    0.8008    0.4789
    0.3909    0.8029    0.4354
    0.4456    0.8024    0.3909
    0.5044    0.7993    0.3480
    0.5616    0.7942    0.3045
    0.6174    0.7876    0.2612
    0.6720    0.7793    0.2227
    0.7242    0.7698    0.1910
    0.7738    0.7598    0.1646
    0.8203    0.7498    0.1535
    0.8634    0.7406    0.1596
    0.9035    0.7330    0.1774
    0.9393    0.7288    0.2100
    0.9728    0.7298    0.2394
    0.9956    0.7434    0.2371
    0.9970    0.7659    0.2199
    0.9952    0.7893    0.2028
    0.9892    0.8136    0.1885
    0.9786    0.8386    0.1766
    0.9676    0.8639    0.1643
    0.9610    0.8890    0.1537
    0.9597    0.9135    0.1423
    0.9628    0.9373    0.1265
    0.9691    0.9606    0.1064
    0.9769    0.9839    0.0805


ans =

    0.2422    0.1504    0.6603
    0.2504    0.1650    0.7076
    0.2578    0.1818    0.7511
    0.2647    0.1978    0.7952
    0.2706    0.2147    0.8364
    0.2751    0.2342    0.8710
    0.2783    0.2559    0.8991
    0.2803    0.2782    0.9221
    0.2813    0.3006    0.9414
    0.2810    0.3228    0.9579
    0.2795    0.3447    0.9717
    0.2760    0.3667    0.9829
    0.2699    0.3892    0.9906
    0.2602    0.4123    0.9952
    0.2440    0.4358    0.9988
    0.2206    0.4603    0.9973
    0.1963    0.4847    0.9892
    0.1834    0.5074    0.9798
    0.1786    0.5289    0.9682
    0.1764    0.5499    0.9520
    0.1687    0.5703    0.9359
    0.1540    0.5902    0.9218
    0.1460    0.6091    0.9079
    0.1380    0.6276    0.8973
    0.1248    0.6459    0.8883
    0.1113    0.6635    0.8763
    0.0952    0.6798    0.8598
    0.0689    0.6948    0.8394
    0.0297    0.7082    0.8163
    0.0036    0.7203    0.7917
    0.0067    0.7312    0.7660
    0.0433    0.7411    0.7394
    0.0964    0.7500    0.7120
    0.1408    0.7584    0.6842
    0.1717    0.7670    0.6554
    0.1938    0.7758    0.6251
    0.2161    0.7843    0.5923
    0.2470    0.7918    0.5567
    0.2906    0.7973    0.5188
    0.3406    0.8008    0.4789
    0.3909    0.8029    0.4354
    0.4456    0.8024    0.3909
    0.5044    0.7993    0.3480
    0.5616    0.7942    0.3045
    0.6174    0.7876    0.2612
    0.6720    0.7793    0.2227
    0.7242    0.7698    0.1910
    0.7738    0.7598    0.1646
    0.8203    0.7498    0.1535
    0.8634    0.7406    0.1596
    0.9035    0.7330    0.1774
    0.9393    0.7288    0.2100
    0.9728    0.7298    0.2394
    0.9956    0.7434    0.2371
    0.9970    0.7659    0.2199
    0.9952    0.7893    0.2028
    0.9892    0.8136    0.1885
    0.9786    0.8386    0.1766
    0.9676    0.8639    0.1643
    0.9610    0.8890    0.1537
    0.9597    0.9135    0.1423
    0.9628    0.9373    0.1265
    0.9691    0.9606    0.1064
    0.9769    0.9839    0.0805


ans =

    0.2422    0.1504    0.6603
    0.2504    0.1650    0.7076
    0.2578    0.1818    0.7511
    0.2647    0.1978    0.7952
    0.2706    0.2147    0.8364
    0.2751    0.2342    0.8710
    0.2783    0.2559    0.8991
    0.2803    0.2782    0.9221
    0.2813    0.3006    0.9414
    0.2810    0.3228    0.9579
    0.2795    0.3447    0.9717
    0.2760    0.3667    0.9829
    0.2699    0.3892    0.9906
    0.2602    0.4123    0.9952
    0.2440    0.4358    0.9988
    0.2206    0.4603    0.9973
    0.1963    0.4847    0.9892
    0.1834    0.5074    0.9798
    0.1786    0.5289    0.9682
    0.1764    0.5499    0.9520
    0.1687    0.5703    0.9359
    0.1540    0.5902    0.9218
    0.1460    0.6091    0.9079
    0.1380    0.6276    0.8973
    0.1248    0.6459    0.8883
    0.1113    0.6635    0.8763
    0.0952    0.6798    0.8598
    0.0689    0.6948    0.8394
    0.0297    0.7082    0.8163
    0.0036    0.7203    0.7917
    0.0067    0.7312    0.7660
    0.0433    0.7411    0.7394
    0.0964    0.7500    0.7120
    0.1408    0.7584    0.6842
    0.1717    0.7670    0.6554
    0.1938    0.7758    0.6251
    0.2161    0.7843    0.5923
    0.2470    0.7918    0.5567
    0.2906    0.7973    0.5188
    0.3406    0.8008    0.4789
    0.3909    0.8029    0.4354
    0.4456    0.8024    0.3909
    0.5044    0.7993    0.3480
    0.5616    0.7942    0.3045
    0.6174    0.7876    0.2612
    0.6720    0.7793    0.2227
    0.7242    0.7698    0.1910
    0.7738    0.7598    0.1646
    0.8203    0.7498    0.1535
    0.8634    0.7406    0.1596
    0.9035    0.7330    0.1774
    0.9393    0.7288    0.2100
    0.9728    0.7298    0.2394
    0.9956    0.7434    0.2371
    0.9970    0.7659    0.2199
    0.9952    0.7893    0.2028
    0.9892    0.8136    0.1885
    0.9786    0.8386    0.1766
    0.9676    0.8639    0.1643
    0.9610    0.8890    0.1537
    0.9597    0.9135    0.1423
    0.9628    0.9373    0.1265
    0.9691    0.9606    0.1064
    0.9769    0.9839    0.0805


ans =

    0.2422    0.1504    0.6603
    0.2504    0.1650    0.7076
    0.2578    0.1818    0.7511
    0.2647    0.1978    0.7952
    0.2706    0.2147    0.8364
    0.2751    0.2342    0.8710
    0.2783    0.2559    0.8991
    0.2803    0.2782    0.9221
    0.2813    0.3006    0.9414
    0.2810    0.3228    0.9579
    0.2795    0.3447    0.9717
    0.2760    0.3667    0.9829
    0.2699    0.3892    0.9906
    0.2602    0.4123    0.9952
    0.2440    0.4358    0.9988
    0.2206    0.4603    0.9973
    0.1963    0.4847    0.9892
    0.1834    0.5074    0.9798
    0.1786    0.5289    0.9682
    0.1764    0.5499    0.9520
    0.1687    0.5703    0.9359
    0.1540    0.5902    0.9218
    0.1460    0.6091    0.9079
    0.1380    0.6276    0.8973
    0.1248    0.6459    0.8883
    0.1113    0.6635    0.8763
    0.0952    0.6798    0.8598
    0.0689    0.6948    0.8394
    0.0297    0.7082    0.8163
    0.0036    0.7203    0.7917
    0.0067    0.7312    0.7660
    0.0433    0.7411    0.7394
    0.0964    0.7500    0.7120
    0.1408    0.7584    0.6842
    0.1717    0.7670    0.6554
    0.1938    0.7758    0.6251
    0.2161    0.7843    0.5923
    0.2470    0.7918    0.5567
    0.2906    0.7973    0.5188
    0.3406    0.8008    0.4789
    0.3909    0.8029    0.4354
    0.4456    0.8024    0.3909
    0.5044    0.7993    0.3480
    0.5616    0.7942    0.3045
    0.6174    0.7876    0.2612
    0.6720    0.7793    0.2227
    0.7242    0.7698    0.1910
    0.7738    0.7598    0.1646
    0.8203    0.7498    0.1535
    0.8634    0.7406    0.1596
    0.9035    0.7330    0.1774
    0.9393    0.7288    0.2100
    0.9728    0.7298    0.2394
    0.9956    0.7434    0.2371
    0.9970    0.7659    0.2199
    0.9952    0.7893    0.2028
    0.9892    0.8136    0.1885
    0.9786    0.8386    0.1766
    0.9676    0.8639    0.1643
    0.9610    0.8890    0.1537
    0.9597    0.9135    0.1423
    0.9628    0.9373    0.1265
    0.9691    0.9606    0.1064
    0.9769    0.9839    0.0805


ans =

    0.2422    0.1504    0.6603
    0.2504    0.1650    0.7076
    0.2578    0.1818    0.7511
    0.2647    0.1978    0.7952
    0.2706    0.2147    0.8364
    0.2751    0.2342    0.8710
    0.2783    0.2559    0.8991
    0.2803    0.2782    0.9221
    0.2813    0.3006    0.9414
    0.2810    0.3228    0.9579
    0.2795    0.3447    0.9717
    0.2760    0.3667    0.9829
    0.2699    0.3892    0.9906
    0.2602    0.4123    0.9952
    0.2440    0.4358    0.9988
    0.2206    0.4603    0.9973
    0.1963    0.4847    0.9892
    0.1834    0.5074    0.9798
    0.1786    0.5289    0.9682
    0.1764    0.5499    0.9520
    0.1687    0.5703    0.9359
    0.1540    0.5902    0.9218
    0.1460    0.6091    0.9079
    0.1380    0.6276    0.8973
    0.1248    0.6459    0.8883
    0.1113    0.6635    0.8763
    0.0952    0.6798    0.8598
    0.0689    0.6948    0.8394
    0.0297    0.7082    0.8163
    0.0036    0.7203    0.7917
    0.0067    0.7312    0.7660
    0.0433    0.7411    0.7394
    0.0964    0.7500    0.7120
    0.1408    0.7584    0.6842
    0.1717    0.7670    0.6554
    0.1938    0.7758    0.6251
    0.2161    0.7843    0.5923
    0.2470    0.7918    0.5567
    0.2906    0.7973    0.5188
    0.3406    0.8008    0.4789
    0.3909    0.8029    0.4354
    0.4456    0.8024    0.3909
    0.5044    0.7993    0.3480
    0.5616    0.7942    0.3045
    0.6174    0.7876    0.2612
    0.6720    0.7793    0.2227
    0.7242    0.7698    0.1910
    0.7738    0.7598    0.1646
    0.8203    0.7498    0.1535
    0.8634    0.7406    0.1596
    0.9035    0.7330    0.1774
    0.9393    0.7288    0.2100
    0.9728    0.7298    0.2394
    0.9956    0.7434    0.2371
    0.9970    0.7659    0.2199
    0.9952    0.7893    0.2028
    0.9892    0.8136    0.1885
    0.9786    0.8386    0.1766
    0.9676    0.8639    0.1643
    0.9610    0.8890    0.1537
    0.9597    0.9135    0.1423
    0.9628    0.9373    0.1265
    0.9691    0.9606    0.1064
    0.9769    0.9839    0.0805


ans =

    0.2422    0.1504    0.6603
    0.2504    0.1650    0.7076
    0.2578    0.1818    0.7511
    0.2647    0.1978    0.7952
    0.2706    0.2147    0.8364
    0.2751    0.2342    0.8710
    0.2783    0.2559    0.8991
    0.2803    0.2782    0.9221
    0.2813    0.3006    0.9414
    0.2810    0.3228    0.9579
    0.2795    0.3447    0.9717
    0.2760    0.3667    0.9829
    0.2699    0.3892    0.9906
    0.2602    0.4123    0.9952
    0.2440    0.4358    0.9988
    0.2206    0.4603    0.9973
    0.1963    0.4847    0.9892
    0.1834    0.5074    0.9798
    0.1786    0.5289    0.9682
    0.1764    0.5499    0.9520
    0.1687    0.5703    0.9359
    0.1540    0.5902    0.9218
    0.1460    0.6091    0.9079
    0.1380    0.6276    0.8973
    0.1248    0.6459    0.8883
    0.1113    0.6635    0.8763
    0.0952    0.6798    0.8598
    0.0689    0.6948    0.8394
    0.0297    0.7082    0.8163
    0.0036    0.7203    0.7917
    0.0067    0.7312    0.7660
    0.0433    0.7411    0.7394
    0.0964    0.7500    0.7120
    0.1408    0.7584    0.6842
    0.1717    0.7670    0.6554
    0.1938    0.7758    0.6251
    0.2161    0.7843    0.5923
    0.2470    0.7918    0.5567
    0.2906    0.7973    0.5188
    0.3406    0.8008    0.4789
    0.3909    0.8029    0.4354
    0.4456    0.8024    0.3909
    0.5044    0.7993    0.3480
    0.5616    0.7942    0.3045
    0.6174    0.7876    0.2612
    0.6720    0.7793    0.2227
    0.7242    0.7698    0.1910
    0.7738    0.7598    0.1646
    0.8203    0.7498    0.1535
    0.8634    0.7406    0.1596
    0.9035    0.7330    0.1774
    0.9393    0.7288    0.2100
    0.9728    0.7298    0.2394
    0.9956    0.7434    0.2371
    0.9970    0.7659    0.2199
    0.9952    0.7893    0.2028
    0.9892    0.8136    0.1885
    0.9786    0.8386    0.1766
    0.9676    0.8639    0.1643
    0.9610    0.8890    0.1537
    0.9597    0.9135    0.1423
    0.9628    0.9373    0.1265
    0.9691    0.9606    0.1064
    0.9769    0.9839    0.0805


ans =

    0.2422    0.1504    0.6603
    0.2504    0.1650    0.7076
    0.2578    0.1818    0.7511
    0.2647    0.1978    0.7952
    0.2706    0.2147    0.8364
    0.2751    0.2342    0.8710
    0.2783    0.2559    0.8991
    0.2803    0.2782    0.9221
    0.2813    0.3006    0.9414
    0.2810    0.3228    0.9579
    0.2795    0.3447    0.9717
    0.2760    0.3667    0.9829
    0.2699    0.3892    0.9906
    0.2602    0.4123    0.9952
    0.2440    0.4358    0.9988
    0.2206    0.4603    0.9973
    0.1963    0.4847    0.9892
    0.1834    0.5074    0.9798
    0.1786    0.5289    0.9682
    0.1764    0.5499    0.9520
    0.1687    0.5703    0.9359
    0.1540    0.5902    0.9218
    0.1460    0.6091    0.9079
    0.1380    0.6276    0.8973
    0.1248    0.6459    0.8883
    0.1113    0.6635    0.8763
    0.0952    0.6798    0.8598
    0.0689    0.6948    0.8394
    0.0297    0.7082    0.8163
    0.0036    0.7203    0.7917
    0.0067    0.7312    0.7660
    0.0433    0.7411    0.7394
    0.0964    0.7500    0.7120
    0.1408    0.7584    0.6842
    0.1717    0.7670    0.6554
    0.1938    0.7758    0.6251
    0.2161    0.7843    0.5923
    0.2470    0.7918    0.5567
    0.2906    0.7973    0.5188
    0.3406    0.8008    0.4789
    0.3909    0.8029    0.4354
    0.4456    0.8024    0.3909
    0.5044    0.7993    0.3480
    0.5616    0.7942    0.3045
    0.6174    0.7876    0.2612
    0.6720    0.7793    0.2227
    0.7242    0.7698    0.1910
    0.7738    0.7598    0.1646
    0.8203    0.7498    0.1535
    0.8634    0.7406    0.1596
    0.9035    0.7330    0.1774
    0.9393    0.7288    0.2100
    0.9728    0.7298    0.2394
    0.9956    0.7434    0.2371
    0.9970    0.7659    0.2199
    0.9952    0.7893    0.2028
    0.9892    0.8136    0.1885
    0.9786    0.8386    0.1766
    0.9676    0.8639    0.1643
    0.9610    0.8890    0.1537
    0.9597    0.9135    0.1423
    0.9628    0.9373    0.1265
    0.9691    0.9606    0.1064
    0.9769    0.9839    0.0805


ans =

    0.2422    0.1504    0.6603
    0.2504    0.1650    0.7076
    0.2578    0.1818    0.7511
    0.2647    0.1978    0.7952
    0.2706    0.2147    0.8364
    0.2751    0.2342    0.8710
    0.2783    0.2559    0.8991
    0.2803    0.2782    0.9221
    0.2813    0.3006    0.9414
    0.2810    0.3228    0.9579
    0.2795    0.3447    0.9717
    0.2760    0.3667    0.9829
    0.2699    0.3892    0.9906
    0.2602    0.4123    0.9952
    0.2440    0.4358    0.9988
    0.2206    0.4603    0.9973
    0.1963    0.4847    0.9892
    0.1834    0.5074    0.9798
    0.1786    0.5289    0.9682
    0.1764    0.5499    0.9520
    0.1687    0.5703    0.9359
    0.1540    0.5902    0.9218
    0.1460    0.6091    0.9079
    0.1380    0.6276    0.8973
    0.1248    0.6459    0.8883
    0.1113    0.6635    0.8763
    0.0952    0.6798    0.8598
    0.0689    0.6948    0.8394
    0.0297    0.7082    0.8163
    0.0036    0.7203    0.7917
    0.0067    0.7312    0.7660
    0.0433    0.7411    0.7394
    0.0964    0.7500    0.7120
    0.1408    0.7584    0.6842
    0.1717    0.7670    0.6554
    0.1938    0.7758    0.6251
    0.2161    0.7843    0.5923
    0.2470    0.7918    0.5567
    0.2906    0.7973    0.5188
    0.3406    0.8008    0.4789
    0.3909    0.8029    0.4354
    0.4456    0.8024    0.3909
    0.5044    0.7993    0.3480
    0.5616    0.7942    0.3045
    0.6174    0.7876    0.2612
    0.6720    0.7793    0.2227
    0.7242    0.7698    0.1910
    0.7738    0.7598    0.1646
    0.8203    0.7498    0.1535
    0.8634    0.7406    0.1596
    0.9035    0.7330    0.1774
    0.9393    0.7288    0.2100
    0.9728    0.7298    0.2394
    0.9956    0.7434    0.2371
    0.9970    0.7659    0.2199
    0.9952    0.7893    0.2028
    0.9892    0.8136    0.1885
    0.9786    0.8386    0.1766
    0.9676    0.8639    0.1643
    0.9610    0.8890    0.1537
    0.9597    0.9135    0.1423
    0.9628    0.9373    0.1265
    0.9691    0.9606    0.1064
    0.9769    0.9839    0.0805


ans =

    0.2422    0.1504    0.6603
    0.2504    0.1650    0.7076
    0.2578    0.1818    0.7511
    0.2647    0.1978    0.7952
    0.2706    0.2147    0.8364
    0.2751    0.2342    0.8710
    0.2783    0.2559    0.8991
    0.2803    0.2782    0.9221
    0.2813    0.3006    0.9414
    0.2810    0.3228    0.9579
    0.2795    0.3447    0.9717
    0.2760    0.3667    0.9829
    0.2699    0.3892    0.9906
    0.2602    0.4123    0.9952
    0.2440    0.4358    0.9988
    0.2206    0.4603    0.9973
    0.1963    0.4847    0.9892
    0.1834    0.5074    0.9798
    0.1786    0.5289    0.9682
    0.1764    0.5499    0.9520
    0.1687    0.5703    0.9359
    0.1540    0.5902    0.9218
    0.1460    0.6091    0.9079
    0.1380    0.6276    0.8973
    0.1248    0.6459    0.8883
    0.1113    0.6635    0.8763
    0.0952    0.6798    0.8598
    0.0689    0.6948    0.8394
    0.0297    0.7082    0.8163
    0.0036    0.7203    0.7917
    0.0067    0.7312    0.7660
    0.0433    0.7411    0.7394
    0.0964    0.7500    0.7120
    0.1408    0.7584    0.6842
    0.1717    0.7670    0.6554
    0.1938    0.7758    0.6251
    0.2161    0.7843    0.5923
    0.2470    0.7918    0.5567
    0.2906    0.7973    0.5188
    0.3406    0.8008    0.4789
    0.3909    0.8029    0.4354
    0.4456    0.8024    0.3909
    0.5044    0.7993    0.3480
    0.5616    0.7942    0.3045
    0.6174    0.7876    0.2612
    0.6720    0.7793    0.2227
    0.7242    0.7698    0.1910
    0.7738    0.7598    0.1646
    0.8203    0.7498    0.1535
    0.8634    0.7406    0.1596
    0.9035    0.7330    0.1774
    0.9393    0.7288    0.2100
    0.9728    0.7298    0.2394
    0.9956    0.7434    0.2371
    0.9970    0.7659    0.2199
    0.9952    0.7893    0.2028
    0.9892    0.8136    0.1885
    0.9786    0.8386    0.1766
    0.9676    0.8639    0.1643
    0.9610    0.8890    0.1537
    0.9597    0.9135    0.1423
    0.9628    0.9373    0.1265
    0.9691    0.9606    0.1064
    0.9769    0.9839    0.0805


ans =

    0.2422    0.1504    0.6603
    0.2504    0.1650    0.7076
    0.2578    0.1818    0.7511
    0.2647    0.1978    0.7952
    0.2706    0.2147    0.8364
    0.2751    0.2342    0.8710
    0.2783    0.2559    0.8991
    0.2803    0.2782    0.9221
    0.2813    0.3006    0.9414
    0.2810    0.3228    0.9579
    0.2795    0.3447    0.9717
    0.2760    0.3667    0.9829
    0.2699    0.3892    0.9906
    0.2602    0.4123    0.9952
    0.2440    0.4358    0.9988
    0.2206    0.4603    0.9973
    0.1963    0.4847    0.9892
    0.1834    0.5074    0.9798
    0.1786    0.5289    0.9682
    0.1764    0.5499    0.9520
    0.1687    0.5703    0.9359
    0.1540    0.5902    0.9218
    0.1460    0.6091    0.9079
    0.1380    0.6276    0.8973
    0.1248    0.6459    0.8883
    0.1113    0.6635    0.8763
    0.0952    0.6798    0.8598
    0.0689    0.6948    0.8394
    0.0297    0.7082    0.8163
    0.0036    0.7203    0.7917
    0.0067    0.7312    0.7660
    0.0433    0.7411    0.7394
    0.0964    0.7500    0.7120
    0.1408    0.7584    0.6842
    0.1717    0.7670    0.6554
    0.1938    0.7758    0.6251
    0.2161    0.7843    0.5923
    0.2470    0.7918    0.5567
    0.2906    0.7973    0.5188
    0.3406    0.8008    0.4789
    0.3909    0.8029    0.4354
    0.4456    0.8024    0.3909
    0.5044    0.7993    0.3480
    0.5616    0.7942    0.3045
    0.6174    0.7876    0.2612
    0.6720    0.7793    0.2227
    0.7242    0.7698    0.1910
    0.7738    0.7598    0.1646
    0.8203    0.7498    0.1535
    0.8634    0.7406    0.1596
    0.9035    0.7330    0.1774
    0.9393    0.7288    0.2100
    0.9728    0.7298    0.2394
    0.9956    0.7434    0.2371
    0.9970    0.7659    0.2199
    0.9952    0.7893    0.2028
    0.9892    0.8136    0.1885
    0.9786    0.8386    0.1766
    0.9676    0.8639    0.1643
    0.9610    0.8890    0.1537
    0.9597    0.9135    0.1423
    0.9628    0.9373    0.1265
    0.9691    0.9606    0.1064
    0.9769    0.9839    0.0805


ans =

    0.2422    0.1504    0.6603
    0.2504    0.1650    0.7076
    0.2578    0.1818    0.7511
    0.2647    0.1978    0.7952
    0.2706    0.2147    0.8364
    0.2751    0.2342    0.8710
    0.2783    0.2559    0.8991
    0.2803    0.2782    0.9221
    0.2813    0.3006    0.9414
    0.2810    0.3228    0.9579
    0.2795    0.3447    0.9717
    0.2760    0.3667    0.9829
    0.2699    0.3892    0.9906
    0.2602    0.4123    0.9952
    0.2440    0.4358    0.9988
    0.2206    0.4603    0.9973
    0.1963    0.4847    0.9892
    0.1834    0.5074    0.9798
    0.1786    0.5289    0.9682
    0.1764    0.5499    0.9520
    0.1687    0.5703    0.9359
    0.1540    0.5902    0.9218
    0.1460    0.6091    0.9079
    0.1380    0.6276    0.8973
    0.1248    0.6459    0.8883
    0.1113    0.6635    0.8763
    0.0952    0.6798    0.8598
    0.0689    0.6948    0.8394
    0.0297    0.7082    0.8163
    0.0036    0.7203    0.7917
    0.0067    0.7312    0.7660
    0.0433    0.7411    0.7394
    0.0964    0.7500    0.7120
    0.1408    0.7584    0.6842
    0.1717    0.7670    0.6554
    0.1938    0.7758    0.6251
    0.2161    0.7843    0.5923
    0.2470    0.7918    0.5567
    0.2906    0.7973    0.5188
    0.3406    0.8008    0.4789
    0.3909    0.8029    0.4354
    0.4456    0.8024    0.3909
    0.5044    0.7993    0.3480
    0.5616    0.7942    0.3045
    0.6174    0.7876    0.2612
    0.6720    0.7793    0.2227
    0.7242    0.7698    0.1910
    0.7738    0.7598    0.1646
    0.8203    0.7498    0.1535
    0.8634    0.7406    0.1596
    0.9035    0.7330    0.1774
    0.9393    0.7288    0.2100
    0.9728    0.7298    0.2394
    0.9956    0.7434    0.2371
    0.9970    0.7659    0.2199
    0.9952    0.7893    0.2028
    0.9892    0.8136    0.1885
    0.9786    0.8386    0.1766
    0.9676    0.8639    0.1643
    0.9610    0.8890    0.1537
    0.9597    0.9135    0.1423
    0.9628    0.9373    0.1265
    0.9691    0.9606    0.1064
    0.9769    0.9839    0.0805


ans =

    0.2422    0.1504    0.6603
    0.2504    0.1650    0.7076
    0.2578    0.1818    0.7511
    0.2647    0.1978    0.7952
    0.2706    0.2147    0.8364
    0.2751    0.2342    0.8710
    0.2783    0.2559    0.8991
    0.2803    0.2782    0.9221
    0.2813    0.3006    0.9414
    0.2810    0.3228    0.9579
    0.2795    0.3447    0.9717
    0.2760    0.3667    0.9829
    0.2699    0.3892    0.9906
    0.2602    0.4123    0.9952
    0.2440    0.4358    0.9988
    0.2206    0.4603    0.9973
    0.1963    0.4847    0.9892
    0.1834    0.5074    0.9798
    0.1786    0.5289    0.9682
    0.1764    0.5499    0.9520
    0.1687    0.5703    0.9359
    0.1540    0.5902    0.9218
    0.1460    0.6091    0.9079
    0.1380    0.6276    0.8973
    0.1248    0.6459    0.8883
    0.1113    0.6635    0.8763
    0.0952    0.6798    0.8598
    0.0689    0.6948    0.8394
    0.0297    0.7082    0.8163
    0.0036    0.7203    0.7917
    0.0067    0.7312    0.7660
    0.0433    0.7411    0.7394
    0.0964    0.7500    0.7120
    0.1408    0.7584    0.6842
    0.1717    0.7670    0.6554
    0.1938    0.7758    0.6251
    0.2161    0.7843    0.5923
    0.2470    0.7918    0.5567
    0.2906    0.7973    0.5188
    0.3406    0.8008    0.4789
    0.3909    0.8029    0.4354
    0.4456    0.8024    0.3909
    0.5044    0.7993    0.3480
    0.5616    0.7942    0.3045
    0.6174    0.7876    0.2612
    0.6720    0.7793    0.2227
    0.7242    0.7698    0.1910
    0.7738    0.7598    0.1646
    0.8203    0.7498    0.1535
    0.8634    0.7406    0.1596
    0.9035    0.7330    0.1774
    0.9393    0.7288    0.2100
    0.9728    0.7298    0.2394
    0.9956    0.7434    0.2371
    0.9970    0.7659    0.2199
    0.9952    0.7893    0.2028
    0.9892    0.8136    0.1885
    0.9786    0.8386    0.1766
    0.9676    0.8639    0.1643
    0.9610    0.8890    0.1537
    0.9597    0.9135    0.1423
    0.9628    0.9373    0.1265
    0.9691    0.9606    0.1064
    0.9769    0.9839    0.0805


ans =

    0.2422    0.1504    0.6603
    0.2504    0.1650    0.7076
    0.2578    0.1818    0.7511
    0.2647    0.1978    0.7952
    0.2706    0.2147    0.8364
    0.2751    0.2342    0.8710
    0.2783    0.2559    0.8991
    0.2803    0.2782    0.9221
    0.2813    0.3006    0.9414
    0.2810    0.3228    0.9579
    0.2795    0.3447    0.9717
    0.2760    0.3667    0.9829
    0.2699    0.3892    0.9906
    0.2602    0.4123    0.9952
    0.2440    0.4358    0.9988
    0.2206    0.4603    0.9973
    0.1963    0.4847    0.9892
    0.1834    0.5074    0.9798
    0.1786    0.5289    0.9682
    0.1764    0.5499    0.9520
    0.1687    0.5703    0.9359
    0.1540    0.5902    0.9218
    0.1460    0.6091    0.9079
    0.1380    0.6276    0.8973
    0.1248    0.6459    0.8883
    0.1113    0.6635    0.8763
    0.0952    0.6798    0.8598
    0.0689    0.6948    0.8394
    0.0297    0.7082    0.8163
    0.0036    0.7203    0.7917
    0.0067    0.7312    0.7660
    0.0433    0.7411    0.7394
    0.0964    0.7500    0.7120
    0.1408    0.7584    0.6842
    0.1717    0.7670    0.6554
    0.1938    0.7758    0.6251
    0.2161    0.7843    0.5923
    0.2470    0.7918    0.5567
    0.2906    0.7973    0.5188
    0.3406    0.8008    0.4789
    0.3909    0.8029    0.4354
    0.4456    0.8024    0.3909
    0.5044    0.7993    0.3480
    0.5616    0.7942    0.3045
    0.6174    0.7876    0.2612
    0.6720    0.7793    0.2227
    0.7242    0.7698    0.1910
    0.7738    0.7598    0.1646
    0.8203    0.7498    0.1535
    0.8634    0.7406    0.1596
    0.9035    0.7330    0.1774
    0.9393    0.7288    0.2100
    0.9728    0.7298    0.2394
    0.9956    0.7434    0.2371
    0.9970    0.7659    0.2199
    0.9952    0.7893    0.2028
    0.9892    0.8136    0.1885
    0.9786    0.8386    0.1766
    0.9676    0.8639    0.1643
    0.9610    0.8890    0.1537
    0.9597    0.9135    0.1423
    0.9628    0.9373    0.1265
    0.9691    0.9606    0.1064
    0.9769    0.9839    0.0805


ans =

    0.2422    0.1504    0.6603
    0.2504    0.1650    0.7076
    0.2578    0.1818    0.7511
    0.2647    0.1978    0.7952
    0.2706    0.2147    0.8364
    0.2751    0.2342    0.8710
    0.2783    0.2559    0.8991
    0.2803    0.2782    0.9221
    0.2813    0.3006    0.9414
    0.2810    0.3228    0.9579
    0.2795    0.3447    0.9717
    0.2760    0.3667    0.9829
    0.2699    0.3892    0.9906
    0.2602    0.4123    0.9952
    0.2440    0.4358    0.9988
    0.2206    0.4603    0.9973
    0.1963    0.4847    0.9892
    0.1834    0.5074    0.9798
    0.1786    0.5289    0.9682
    0.1764    0.5499    0.9520
    0.1687    0.5703    0.9359
    0.1540    0.5902    0.9218
    0.1460    0.6091    0.9079
    0.1380    0.6276    0.8973
    0.1248    0.6459    0.8883
    0.1113    0.6635    0.8763
    0.0952    0.6798    0.8598
    0.0689    0.6948    0.8394
    0.0297    0.7082    0.8163
    0.0036    0.7203    0.7917
    0.0067    0.7312    0.7660
    0.0433    0.7411    0.7394
    0.0964    0.7500    0.7120
    0.1408    0.7584    0.6842
    0.1717    0.7670    0.6554
    0.1938    0.7758    0.6251
    0.2161    0.7843    0.5923
    0.2470    0.7918    0.5567
    0.2906    0.7973    0.5188
    0.3406    0.8008    0.4789
    0.3909    0.8029    0.4354
    0.4456    0.8024    0.3909
    0.5044    0.7993    0.3480
    0.5616    0.7942    0.3045
    0.6174    0.7876    0.2612
    0.6720    0.7793    0.2227
    0.7242    0.7698    0.1910
    0.7738    0.7598    0.1646
    0.8203    0.7498    0.1535
    0.8634    0.7406    0.1596
    0.9035    0.7330    0.1774
    0.9393    0.7288    0.2100
    0.9728    0.7298    0.2394
    0.9956    0.7434    0.2371
    0.9970    0.7659    0.2199
    0.9952    0.7893    0.2028
    0.9892    0.8136    0.1885
    0.9786    0.8386    0.1766
    0.9676    0.8639    0.1643
    0.9610    0.8890    0.1537
    0.9597    0.9135    0.1423
    0.9628    0.9373    0.1265
    0.9691    0.9606    0.1064
    0.9769    0.9839    0.0805


ans =

    0.2422    0.1504    0.6603
    0.2504    0.1650    0.7076
    0.2578    0.1818    0.7511
    0.2647    0.1978    0.7952
    0.2706    0.2147    0.8364
    0.2751    0.2342    0.8710
    0.2783    0.2559    0.8991
    0.2803    0.2782    0.9221
    0.2813    0.3006    0.9414
    0.2810    0.3228    0.9579
    0.2795    0.3447    0.9717
    0.2760    0.3667    0.9829
    0.2699    0.3892    0.9906
    0.2602    0.4123    0.9952
    0.2440    0.4358    0.9988
    0.2206    0.4603    0.9973
    0.1963    0.4847    0.9892
    0.1834    0.5074    0.9798
    0.1786    0.5289    0.9682
    0.1764    0.5499    0.9520
    0.1687    0.5703    0.9359
    0.1540    0.5902    0.9218
    0.1460    0.6091    0.9079
    0.1380    0.6276    0.8973
    0.1248    0.6459    0.8883
    0.1113    0.6635    0.8763
    0.0952    0.6798    0.8598
    0.0689    0.6948    0.8394
    0.0297    0.7082    0.8163
    0.0036    0.7203    0.7917
    0.0067    0.7312    0.7660
    0.0433    0.7411    0.7394
    0.0964    0.7500    0.7120
    0.1408    0.7584    0.6842
    0.1717    0.7670    0.6554
    0.1938    0.7758    0.6251
    0.2161    0.7843    0.5923
    0.2470    0.7918    0.5567
    0.2906    0.7973    0.5188
    0.3406    0.8008    0.4789
    0.3909    0.8029    0.4354
    0.4456    0.8024    0.3909
    0.5044    0.7993    0.3480
    0.5616    0.7942    0.3045
    0.6174    0.7876    0.2612
    0.6720    0.7793    0.2227
    0.7242    0.7698    0.1910
    0.7738    0.7598    0.1646
    0.8203    0.7498    0.1535
    0.8634    0.7406    0.1596
    0.9035    0.7330    0.1774
    0.9393    0.7288    0.2100
    0.9728    0.7298    0.2394
    0.9956    0.7434    0.2371
    0.9970    0.7659    0.2199
    0.9952    0.7893    0.2028
    0.9892    0.8136    0.1885
    0.9786    0.8386    0.1766
    0.9676    0.8639    0.1643
    0.9610    0.8890    0.1537
    0.9597    0.9135    0.1423
    0.9628    0.9373    0.1265
    0.9691    0.9606    0.1064
    0.9769    0.9839    0.0805


ans =

    0.2422    0.1504    0.6603
    0.2504    0.1650    0.7076
    0.2578    0.1818    0.7511
    0.2647    0.1978    0.7952
    0.2706    0.2147    0.8364
    0.2751    0.2342    0.8710
    0.2783    0.2559    0.8991
    0.2803    0.2782    0.9221
    0.2813    0.3006    0.9414
    0.2810    0.3228    0.9579
    0.2795    0.3447    0.9717
    0.2760    0.3667    0.9829
    0.2699    0.3892    0.9906
    0.2602    0.4123    0.9952
    0.2440    0.4358    0.9988
    0.2206    0.4603    0.9973
    0.1963    0.4847    0.9892
    0.1834    0.5074    0.9798
    0.1786    0.5289    0.9682
    0.1764    0.5499    0.9520
    0.1687    0.5703    0.9359
    0.1540    0.5902    0.9218
    0.1460    0.6091    0.9079
    0.1380    0.6276    0.8973
    0.1248    0.6459    0.8883
    0.1113    0.6635    0.8763
    0.0952    0.6798    0.8598
    0.0689    0.6948    0.8394
    0.0297    0.7082    0.8163
    0.0036    0.7203    0.7917
    0.0067    0.7312    0.7660
    0.0433    0.7411    0.7394
    0.0964    0.7500    0.7120
    0.1408    0.7584    0.6842
    0.1717    0.7670    0.6554
    0.1938    0.7758    0.6251
    0.2161    0.7843    0.5923
    0.2470    0.7918    0.5567
    0.2906    0.7973    0.5188
    0.3406    0.8008    0.4789
    0.3909    0.8029    0.4354
    0.4456    0.8024    0.3909
    0.5044    0.7993    0.3480
    0.5616    0.7942    0.3045
    0.6174    0.7876    0.2612
    0.6720    0.7793    0.2227
    0.7242    0.7698    0.1910
    0.7738    0.7598    0.1646
    0.8203    0.7498    0.1535
    0.8634    0.7406    0.1596
    0.9035    0.7330    0.1774
    0.9393    0.7288    0.2100
    0.9728    0.7298    0.2394
    0.9956    0.7434    0.2371
    0.9970    0.7659    0.2199
    0.9952    0.7893    0.2028
    0.9892    0.8136    0.1885
    0.9786    0.8386    0.1766
    0.9676    0.8639    0.1643
    0.9610    0.8890    0.1537
    0.9597    0.9135    0.1423
    0.9628    0.9373    0.1265
    0.9691    0.9606    0.1064
    0.9769    0.9839    0.0805


ans =

    0.2422    0.1504    0.6603
    0.2504    0.1650    0.7076
    0.2578    0.1818    0.7511
    0.2647    0.1978    0.7952
    0.2706    0.2147    0.8364
    0.2751    0.2342    0.8710
    0.2783    0.2559    0.8991
    0.2803    0.2782    0.9221
    0.2813    0.3006    0.9414
    0.2810    0.3228    0.9579
    0.2795    0.3447    0.9717
    0.2760    0.3667    0.9829
    0.2699    0.3892    0.9906
    0.2602    0.4123    0.9952
    0.2440    0.4358    0.9988
    0.2206    0.4603    0.9973
    0.1963    0.4847    0.9892
    0.1834    0.5074    0.9798
    0.1786    0.5289    0.9682
    0.1764    0.5499    0.9520
    0.1687    0.5703    0.9359
    0.1540    0.5902    0.9218
    0.1460    0.6091    0.9079
    0.1380    0.6276    0.8973
    0.1248    0.6459    0.8883
    0.1113    0.6635    0.8763
    0.0952    0.6798    0.8598
    0.0689    0.6948    0.8394
    0.0297    0.7082    0.8163
    0.0036    0.7203    0.7917
    0.0067    0.7312    0.7660
    0.0433    0.7411    0.7394
    0.0964    0.7500    0.7120
    0.1408    0.7584    0.6842
    0.1717    0.7670    0.6554
    0.1938    0.7758    0.6251
    0.2161    0.7843    0.5923
    0.2470    0.7918    0.5567
    0.2906    0.7973    0.5188
    0.3406    0.8008    0.4789
    0.3909    0.8029    0.4354
    0.4456    0.8024    0.3909
    0.5044    0.7993    0.3480
    0.5616    0.7942    0.3045
    0.6174    0.7876    0.2612
    0.6720    0.7793    0.2227
    0.7242    0.7698    0.1910
    0.7738    0.7598    0.1646
    0.8203    0.7498    0.1535
    0.8634    0.7406    0.1596
    0.9035    0.7330    0.1774
    0.9393    0.7288    0.2100
    0.9728    0.7298    0.2394
    0.9956    0.7434    0.2371
    0.9970    0.7659    0.2199
    0.9952    0.7893    0.2028
    0.9892    0.8136    0.1885
    0.9786    0.8386    0.1766
    0.9676    0.8639    0.1643
    0.9610    0.8890    0.1537
    0.9597    0.9135    0.1423
    0.9628    0.9373    0.1265
    0.9691    0.9606    0.1064
    0.9769    0.9839    0.0805


ans =

    0.2422    0.1504    0.6603
    0.2504    0.1650    0.7076
    0.2578    0.1818    0.7511
    0.2647    0.1978    0.7952
    0.2706    0.2147    0.8364
    0.2751    0.2342    0.8710
    0.2783    0.2559    0.8991
    0.2803    0.2782    0.9221
    0.2813    0.3006    0.9414
    0.2810    0.3228    0.9579
    0.2795    0.3447    0.9717
    0.2760    0.3667    0.9829
    0.2699    0.3892    0.9906
    0.2602    0.4123    0.9952
    0.2440    0.4358    0.9988
    0.2206    0.4603    0.9973
    0.1963    0.4847    0.9892
    0.1834    0.5074    0.9798
    0.1786    0.5289    0.9682
    0.1764    0.5499    0.9520
    0.1687    0.5703    0.9359
    0.1540    0.5902    0.9218
    0.1460    0.6091    0.9079
    0.1380    0.6276    0.8973
    0.1248    0.6459    0.8883
    0.1113    0.6635    0.8763
    0.0952    0.6798    0.8598
    0.0689    0.6948    0.8394
    0.0297    0.7082    0.8163
    0.0036    0.7203    0.7917
    0.0067    0.7312    0.7660
    0.0433    0.7411    0.7394
    0.0964    0.7500    0.7120
    0.1408    0.7584    0.6842
    0.1717    0.7670    0.6554
    0.1938    0.7758    0.6251
    0.2161    0.7843    0.5923
    0.2470    0.7918    0.5567
    0.2906    0.7973    0.5188
    0.3406    0.8008    0.4789
    0.3909    0.8029    0.4354
    0.4456    0.8024    0.3909
    0.5044    0.7993    0.3480
    0.5616    0.7942    0.3045
    0.6174    0.7876    0.2612
    0.6720    0.7793    0.2227
    0.7242    0.7698    0.1910
    0.7738    0.7598    0.1646
    0.8203    0.7498    0.1535
    0.8634    0.7406    0.1596
    0.9035    0.7330    0.1774
    0.9393    0.7288    0.2100
    0.9728    0.7298    0.2394
    0.9956    0.7434    0.2371
    0.9970    0.7659    0.2199
    0.9952    0.7893    0.2028
    0.9892    0.8136    0.1885
    0.9786    0.8386    0.1766
    0.9676    0.8639    0.1643
    0.9610    0.8890    0.1537
    0.9597    0.9135    0.1423
    0.9628    0.9373    0.1265
    0.9691    0.9606    0.1064
    0.9769    0.9839    0.0805


ans =

    0.2422    0.1504    0.6603
    0.2504    0.1650    0.7076
    0.2578    0.1818    0.7511
    0.2647    0.1978    0.7952
    0.2706    0.2147    0.8364
    0.2751    0.2342    0.8710
    0.2783    0.2559    0.8991
    0.2803    0.2782    0.9221
    0.2813    0.3006    0.9414
    0.2810    0.3228    0.9579
    0.2795    0.3447    0.9717
    0.2760    0.3667    0.9829
    0.2699    0.3892    0.9906
    0.2602    0.4123    0.9952
    0.2440    0.4358    0.9988
    0.2206    0.4603    0.9973
    0.1963    0.4847    0.9892
    0.1834    0.5074    0.9798
    0.1786    0.5289    0.9682
    0.1764    0.5499    0.9520
    0.1687    0.5703    0.9359
    0.1540    0.5902    0.9218
    0.1460    0.6091    0.9079
    0.1380    0.6276    0.8973
    0.1248    0.6459    0.8883
    0.1113    0.6635    0.8763
    0.0952    0.6798    0.8598
    0.0689    0.6948    0.8394
    0.0297    0.7082    0.8163
    0.0036    0.7203    0.7917
    0.0067    0.7312    0.7660
    0.0433    0.7411    0.7394
    0.0964    0.7500    0.7120
    0.1408    0.7584    0.6842
    0.1717    0.7670    0.6554
    0.1938    0.7758    0.6251
    0.2161    0.7843    0.5923
    0.2470    0.7918    0.5567
    0.2906    0.7973    0.5188
    0.3406    0.8008    0.4789
    0.3909    0.8029    0.4354
    0.4456    0.8024    0.3909
    0.5044    0.7993    0.3480
    0.5616    0.7942    0.3045
    0.6174    0.7876    0.2612
    0.6720    0.7793    0.2227
    0.7242    0.7698    0.1910
    0.7738    0.7598    0.1646
    0.8203    0.7498    0.1535
    0.8634    0.7406    0.1596
    0.9035    0.7330    0.1774
    0.9393    0.7288    0.2100
    0.9728    0.7298    0.2394
    0.9956    0.7434    0.2371
    0.9970    0.7659    0.2199
    0.9952    0.7893    0.2028
    0.9892    0.8136    0.1885
    0.9786    0.8386    0.1766
    0.9676    0.8639    0.1643
    0.9610    0.8890    0.1537
    0.9597    0.9135    0.1423
    0.9628    0.9373    0.1265
    0.9691    0.9606    0.1064
    0.9769    0.9839    0.0805


ans =

    0.2422    0.1504    0.6603
    0.2504    0.1650    0.7076
    0.2578    0.1818    0.7511
    0.2647    0.1978    0.7952
    0.2706    0.2147    0.8364
    0.2751    0.2342    0.8710
    0.2783    0.2559    0.8991
    0.2803    0.2782    0.9221
    0.2813    0.3006    0.9414
    0.2810    0.3228    0.9579
    0.2795    0.3447    0.9717
    0.2760    0.3667    0.9829
    0.2699    0.3892    0.9906
    0.2602    0.4123    0.9952
    0.2440    0.4358    0.9988
    0.2206    0.4603    0.9973
    0.1963    0.4847    0.9892
    0.1834    0.5074    0.9798
    0.1786    0.5289    0.9682
    0.1764    0.5499    0.9520
    0.1687    0.5703    0.9359
    0.1540    0.5902    0.9218
    0.1460    0.6091    0.9079
    0.1380    0.6276    0.8973
    0.1248    0.6459    0.8883
    0.1113    0.6635    0.8763
    0.0952    0.6798    0.8598
    0.0689    0.6948    0.8394
    0.0297    0.7082    0.8163
    0.0036    0.7203    0.7917
    0.0067    0.7312    0.7660
    0.0433    0.7411    0.7394
    0.0964    0.7500    0.7120
    0.1408    0.7584    0.6842
    0.1717    0.7670    0.6554
    0.1938    0.7758    0.6251
    0.2161    0.7843    0.5923
    0.2470    0.7918    0.5567
    0.2906    0.7973    0.5188
    0.3406    0.8008    0.4789
    0.3909    0.8029    0.4354
    0.4456    0.8024    0.3909
    0.5044    0.7993    0.3480
    0.5616    0.7942    0.3045
    0.6174    0.7876    0.2612
    0.6720    0.7793    0.2227
    0.7242    0.7698    0.1910
    0.7738    0.7598    0.1646
    0.8203    0.7498    0.1535
    0.8634    0.7406    0.1596
    0.9035    0.7330    0.1774
    0.9393    0.7288    0.2100
    0.9728    0.7298    0.2394
    0.9956    0.7434    0.2371
    0.9970    0.7659    0.2199
    0.9952    0.7893    0.2028
    0.9892    0.8136    0.1885
    0.9786    0.8386    0.1766
    0.9676    0.8639    0.1643
    0.9610    0.8890    0.1537
    0.9597    0.9135    0.1423
    0.9628    0.9373    0.1265
    0.9691    0.9606    0.1064
    0.9769    0.9839    0.0805


ans =

    0.2422    0.1504    0.6603
    0.2504    0.1650    0.7076
    0.2578    0.1818    0.7511
    0.2647    0.1978    0.7952
    0.2706    0.2147    0.8364
    0.2751    0.2342    0.8710
    0.2783    0.2559    0.8991
    0.2803    0.2782    0.9221
    0.2813    0.3006    0.9414
    0.2810    0.3228    0.9579
    0.2795    0.3447    0.9717
    0.2760    0.3667    0.9829
    0.2699    0.3892    0.9906
    0.2602    0.4123    0.9952
    0.2440    0.4358    0.9988
    0.2206    0.4603    0.9973
    0.1963    0.4847    0.9892
    0.1834    0.5074    0.9798
    0.1786    0.5289    0.9682
    0.1764    0.5499    0.9520
    0.1687    0.5703    0.9359
    0.1540    0.5902    0.9218
    0.1460    0.6091    0.9079
    0.1380    0.6276    0.8973
    0.1248    0.6459    0.8883
    0.1113    0.6635    0.8763
    0.0952    0.6798    0.8598
    0.0689    0.6948    0.8394
    0.0297    0.7082    0.8163
    0.0036    0.7203    0.7917
    0.0067    0.7312    0.7660
    0.0433    0.7411    0.7394
    0.0964    0.7500    0.7120
    0.1408    0.7584    0.6842
    0.1717    0.7670    0.6554
    0.1938    0.7758    0.6251
    0.2161    0.7843    0.5923
    0.2470    0.7918    0.5567
    0.2906    0.7973    0.5188
    0.3406    0.8008    0.4789
    0.3909    0.8029    0.4354
    0.4456    0.8024    0.3909
    0.5044    0.7993    0.3480
    0.5616    0.7942    0.3045
    0.6174    0.7876    0.2612
    0.6720    0.7793    0.2227
    0.7242    0.7698    0.1910
    0.7738    0.7598    0.1646
    0.8203    0.7498    0.1535
    0.8634    0.7406    0.1596
    0.9035    0.7330    0.1774
    0.9393    0.7288    0.2100
    0.9728    0.7298    0.2394
    0.9956    0.7434    0.2371
    0.9970    0.7659    0.2199
    0.9952    0.7893    0.2028
    0.9892    0.8136    0.1885
    0.9786    0.8386    0.1766
    0.9676    0.8639    0.1643
    0.9610    0.8890    0.1537
    0.9597    0.9135    0.1423
    0.9628    0.9373    0.1265
    0.9691    0.9606    0.1064
    0.9769    0.9839    0.0805


ans =

    0.2422    0.1504    0.6603
    0.2504    0.1650    0.7076
    0.2578    0.1818    0.7511
    0.2647    0.1978    0.7952
    0.2706    0.2147    0.8364
    0.2751    0.2342    0.8710
    0.2783    0.2559    0.8991
    0.2803    0.2782    0.9221
    0.2813    0.3006    0.9414
    0.2810    0.3228    0.9579
    0.2795    0.3447    0.9717
    0.2760    0.3667    0.9829
    0.2699    0.3892    0.9906
    0.2602    0.4123    0.9952
    0.2440    0.4358    0.9988
    0.2206    0.4603    0.9973
    0.1963    0.4847    0.9892
    0.1834    0.5074    0.9798
    0.1786    0.5289    0.9682
    0.1764    0.5499    0.9520
    0.1687    0.5703    0.9359
    0.1540    0.5902    0.9218
    0.1460    0.6091    0.9079
    0.1380    0.6276    0.8973
    0.1248    0.6459    0.8883
    0.1113    0.6635    0.8763
    0.0952    0.6798    0.8598
    0.0689    0.6948    0.8394
    0.0297    0.7082    0.8163
    0.0036    0.7203    0.7917
    0.0067    0.7312    0.7660
    0.0433    0.7411    0.7394
    0.0964    0.7500    0.7120
    0.1408    0.7584    0.6842
    0.1717    0.7670    0.6554
    0.1938    0.7758    0.6251
    0.2161    0.7843    0.5923
    0.2470    0.7918    0.5567
    0.2906    0.7973    0.5188
    0.3406    0.8008    0.4789
    0.3909    0.8029    0.4354
    0.4456    0.8024    0.3909
    0.5044    0.7993    0.3480
    0.5616    0.7942    0.3045
    0.6174    0.7876    0.2612
    0.6720    0.7793    0.2227
    0.7242    0.7698    0.1910
    0.7738    0.7598    0.1646
    0.8203    0.7498    0.1535
    0.8634    0.7406    0.1596
    0.9035    0.7330    0.1774
    0.9393    0.7288    0.2100
    0.9728    0.7298    0.2394
    0.9956    0.7434    0.2371
    0.9970    0.7659    0.2199
    0.9952    0.7893    0.2028
    0.9892    0.8136    0.1885
    0.9786    0.8386    0.1766
    0.9676    0.8639    0.1643
    0.9610    0.8890    0.1537
    0.9597    0.9135    0.1423
    0.9628    0.9373    0.1265
    0.9691    0.9606    0.1064
    0.9769    0.9839    0.0805


ans =

    0.2422    0.1504    0.6603
    0.2504    0.1650    0.7076
    0.2578    0.1818    0.7511
    0.2647    0.1978    0.7952
    0.2706    0.2147    0.8364
    0.2751    0.2342    0.8710
    0.2783    0.2559    0.8991
    0.2803    0.2782    0.9221
    0.2813    0.3006    0.9414
    0.2810    0.3228    0.9579
    0.2795    0.3447    0.9717
    0.2760    0.3667    0.9829
    0.2699    0.3892    0.9906
    0.2602    0.4123    0.9952
    0.2440    0.4358    0.9988
    0.2206    0.4603    0.9973
    0.1963    0.4847    0.9892
    0.1834    0.5074    0.9798
    0.1786    0.5289    0.9682
    0.1764    0.5499    0.9520
    0.1687    0.5703    0.9359
    0.1540    0.5902    0.9218
    0.1460    0.6091    0.9079
    0.1380    0.6276    0.8973
    0.1248    0.6459    0.8883
    0.1113    0.6635    0.8763
    0.0952    0.6798    0.8598
    0.0689    0.6948    0.8394
    0.0297    0.7082    0.8163
    0.0036    0.7203    0.7917
    0.0067    0.7312    0.7660
    0.0433    0.7411    0.7394
    0.0964    0.7500    0.7120
    0.1408    0.7584    0.6842
    0.1717    0.7670    0.6554
    0.1938    0.7758    0.6251
    0.2161    0.7843    0.5923
    0.2470    0.7918    0.5567
    0.2906    0.7973    0.5188
    0.3406    0.8008    0.4789
    0.3909    0.8029    0.4354
    0.4456    0.8024    0.3909
    0.5044    0.7993    0.3480
    0.5616    0.7942    0.3045
    0.6174    0.7876    0.2612
    0.6720    0.7793    0.2227
    0.7242    0.7698    0.1910
    0.7738    0.7598    0.1646
    0.8203    0.7498    0.1535
    0.8634    0.7406    0.1596
    0.9035    0.7330    0.1774
    0.9393    0.7288    0.2100
    0.9728    0.7298    0.2394
    0.9956    0.7434    0.2371
    0.9970    0.7659    0.2199
    0.9952    0.7893    0.2028
    0.9892    0.8136    0.1885
    0.9786    0.8386    0.1766
    0.9676    0.8639    0.1643
    0.9610    0.8890    0.1537
    0.9597    0.9135    0.1423
    0.9628    0.9373    0.1265
    0.9691    0.9606    0.1064
    0.9769    0.9839    0.0805


ans =

    0.2422    0.1504    0.6603
    0.2504    0.1650    0.7076
    0.2578    0.1818    0.7511
    0.2647    0.1978    0.7952
    0.2706    0.2147    0.8364
    0.2751    0.2342    0.8710
    0.2783    0.2559    0.8991
    0.2803    0.2782    0.9221
    0.2813    0.3006    0.9414
    0.2810    0.3228    0.9579
    0.2795    0.3447    0.9717
    0.2760    0.3667    0.9829
    0.2699    0.3892    0.9906
    0.2602    0.4123    0.9952
    0.2440    0.4358    0.9988
    0.2206    0.4603    0.9973
    0.1963    0.4847    0.9892
    0.1834    0.5074    0.9798
    0.1786    0.5289    0.9682
    0.1764    0.5499    0.9520
    0.1687    0.5703    0.9359
    0.1540    0.5902    0.9218
    0.1460    0.6091    0.9079
    0.1380    0.6276    0.8973
    0.1248    0.6459    0.8883
    0.1113    0.6635    0.8763
    0.0952    0.6798    0.8598
    0.0689    0.6948    0.8394
    0.0297    0.7082    0.8163
    0.0036    0.7203    0.7917
    0.0067    0.7312    0.7660
    0.0433    0.7411    0.7394
    0.0964    0.7500    0.7120
    0.1408    0.7584    0.6842
    0.1717    0.7670    0.6554
    0.1938    0.7758    0.6251
    0.2161    0.7843    0.5923
    0.2470    0.7918    0.5567
    0.2906    0.7973    0.5188
    0.3406    0.8008    0.4789
    0.3909    0.8029    0.4354
    0.4456    0.8024    0.3909
    0.5044    0.7993    0.3480
    0.5616    0.7942    0.3045
    0.6174    0.7876    0.2612
    0.6720    0.7793    0.2227
    0.7242    0.7698    0.1910
    0.7738    0.7598    0.1646
    0.8203    0.7498    0.1535
    0.8634    0.7406    0.1596
    0.9035    0.7330    0.1774
    0.9393    0.7288    0.2100
    0.9728    0.7298    0.2394
    0.9956    0.7434    0.2371
    0.9970    0.7659    0.2199
    0.9952    0.7893    0.2028
    0.9892    0.8136    0.1885
    0.9786    0.8386    0.1766
    0.9676    0.8639    0.1643
    0.9610    0.8890    0.1537
    0.9597    0.9135    0.1423
    0.9628    0.9373    0.1265
    0.9691    0.9606    0.1064
    0.9769    0.9839    0.0805


ans =

    0.2422    0.1504    0.6603
    0.2504    0.1650    0.7076
    0.2578    0.1818    0.7511
    0.2647    0.1978    0.7952
    0.2706    0.2147    0.8364
    0.2751    0.2342    0.8710
    0.2783    0.2559    0.8991
    0.2803    0.2782    0.9221
    0.2813    0.3006    0.9414
    0.2810    0.3228    0.9579
    0.2795    0.3447    0.9717
    0.2760    0.3667    0.9829
    0.2699    0.3892    0.9906
    0.2602    0.4123    0.9952
    0.2440    0.4358    0.9988
    0.2206    0.4603    0.9973
    0.1963    0.4847    0.9892
    0.1834    0.5074    0.9798
    0.1786    0.5289    0.9682
    0.1764    0.5499    0.9520
    0.1687    0.5703    0.9359
    0.1540    0.5902    0.9218
    0.1460    0.6091    0.9079
    0.1380    0.6276    0.8973
    0.1248    0.6459    0.8883
    0.1113    0.6635    0.8763
    0.0952    0.6798    0.8598
    0.0689    0.6948    0.8394
    0.0297    0.7082    0.8163
    0.0036    0.7203    0.7917
    0.0067    0.7312    0.7660
    0.0433    0.7411    0.7394
    0.0964    0.7500    0.7120
    0.1408    0.7584    0.6842
    0.1717    0.7670    0.6554
    0.1938    0.7758    0.6251
    0.2161    0.7843    0.5923
    0.2470    0.7918    0.5567
    0.2906    0.7973    0.5188
    0.3406    0.8008    0.4789
    0.3909    0.8029    0.4354
    0.4456    0.8024    0.3909
    0.5044    0.7993    0.3480
    0.5616    0.7942    0.3045
    0.6174    0.7876    0.2612
    0.6720    0.7793    0.2227
    0.7242    0.7698    0.1910
    0.7738    0.7598    0.1646
    0.8203    0.7498    0.1535
    0.8634    0.7406    0.1596
    0.9035    0.7330    0.1774
    0.9393    0.7288    0.2100
    0.9728    0.7298    0.2394
    0.9956    0.7434    0.2371
    0.9970    0.7659    0.2199
    0.9952    0.7893    0.2028
    0.9892    0.8136    0.1885
    0.9786    0.8386    0.1766
    0.9676    0.8639    0.1643
    0.9610    0.8890    0.1537
    0.9597    0.9135    0.1423
    0.9628    0.9373    0.1265
    0.9691    0.9606    0.1064
    0.9769    0.9839    0.0805


ans =

    0.2422    0.1504    0.6603
    0.2504    0.1650    0.7076
    0.2578    0.1818    0.7511
    0.2647    0.1978    0.7952
    0.2706    0.2147    0.8364
    0.2751    0.2342    0.8710
    0.2783    0.2559    0.8991
    0.2803    0.2782    0.9221
    0.2813    0.3006    0.9414
    0.2810    0.3228    0.9579
    0.2795    0.3447    0.9717
    0.2760    0.3667    0.9829
    0.2699    0.3892    0.9906
    0.2602    0.4123    0.9952
    0.2440    0.4358    0.9988
    0.2206    0.4603    0.9973
    0.1963    0.4847    0.9892
    0.1834    0.5074    0.9798
    0.1786    0.5289    0.9682
    0.1764    0.5499    0.9520
    0.1687    0.5703    0.9359
    0.1540    0.5902    0.9218
    0.1460    0.6091    0.9079
    0.1380    0.6276    0.8973
    0.1248    0.6459    0.8883
    0.1113    0.6635    0.8763
    0.0952    0.6798    0.8598
    0.0689    0.6948    0.8394
    0.0297    0.7082    0.8163
    0.0036    0.7203    0.7917
    0.0067    0.7312    0.7660
    0.0433    0.7411    0.7394
    0.0964    0.7500    0.7120
    0.1408    0.7584    0.6842
    0.1717    0.7670    0.6554
    0.1938    0.7758    0.6251
    0.2161    0.7843    0.5923
    0.2470    0.7918    0.5567
    0.2906    0.7973    0.5188
    0.3406    0.8008    0.4789
    0.3909    0.8029    0.4354
    0.4456    0.8024    0.3909
    0.5044    0.7993    0.3480
    0.5616    0.7942    0.3045
    0.6174    0.7876    0.2612
    0.6720    0.7793    0.2227
    0.7242    0.7698    0.1910
    0.7738    0.7598    0.1646
    0.8203    0.7498    0.1535
    0.8634    0.7406    0.1596
    0.9035    0.7330    0.1774
    0.9393    0.7288    0.2100
    0.9728    0.7298    0.2394
    0.9956    0.7434    0.2371
    0.9970    0.7659    0.2199
    0.9952    0.7893    0.2028
    0.9892    0.8136    0.1885
    0.9786    0.8386    0.1766
    0.9676    0.8639    0.1643
    0.9610    0.8890    0.1537
    0.9597    0.9135    0.1423
    0.9628    0.9373    0.1265
    0.9691    0.9606    0.1064
    0.9769    0.9839    0.0805


ans =

    0.2422    0.1504    0.6603
    0.2504    0.1650    0.7076
    0.2578    0.1818    0.7511
    0.2647    0.1978    0.7952
    0.2706    0.2147    0.8364
    0.2751    0.2342    0.8710
    0.2783    0.2559    0.8991
    0.2803    0.2782    0.9221
    0.2813    0.3006    0.9414
    0.2810    0.3228    0.9579
    0.2795    0.3447    0.9717
    0.2760    0.3667    0.9829
    0.2699    0.3892    0.9906
    0.2602    0.4123    0.9952
    0.2440    0.4358    0.9988
    0.2206    0.4603    0.9973
    0.1963    0.4847    0.9892
    0.1834    0.5074    0.9798
    0.1786    0.5289    0.9682
    0.1764    0.5499    0.9520
    0.1687    0.5703    0.9359
    0.1540    0.5902    0.9218
    0.1460    0.6091    0.9079
    0.1380    0.6276    0.8973
    0.1248    0.6459    0.8883
    0.1113    0.6635    0.8763
    0.0952    0.6798    0.8598
    0.0689    0.6948    0.8394
    0.0297    0.7082    0.8163
    0.0036    0.7203    0.7917
    0.0067    0.7312    0.7660
    0.0433    0.7411    0.7394
    0.0964    0.7500    0.7120
    0.1408    0.7584    0.6842
    0.1717    0.7670    0.6554
    0.1938    0.7758    0.6251
    0.2161    0.7843    0.5923
    0.2470    0.7918    0.5567
    0.2906    0.7973    0.5188
    0.3406    0.8008    0.4789
    0.3909    0.8029    0.4354
    0.4456    0.8024    0.3909
    0.5044    0.7993    0.3480
    0.5616    0.7942    0.3045
    0.6174    0.7876    0.2612
    0.6720    0.7793    0.2227
    0.7242    0.7698    0.1910
    0.7738    0.7598    0.1646
    0.8203    0.7498    0.1535
    0.8634    0.7406    0.1596
    0.9035    0.7330    0.1774
    0.9393    0.7288    0.2100
    0.9728    0.7298    0.2394
    0.9956    0.7434    0.2371
    0.9970    0.7659    0.2199
    0.9952    0.7893    0.2028
    0.9892    0.8136    0.1885
    0.9786    0.8386    0.1766
    0.9676    0.8639    0.1643
    0.9610    0.8890    0.1537
    0.9597    0.9135    0.1423
    0.9628    0.9373    0.1265
    0.9691    0.9606    0.1064
    0.9769    0.9839    0.0805


ans =

    0.2422    0.1504    0.6603
    0.2504    0.1650    0.7076
    0.2578    0.1818    0.7511
    0.2647    0.1978    0.7952
    0.2706    0.2147    0.8364
    0.2751    0.2342    0.8710
    0.2783    0.2559    0.8991
    0.2803    0.2782    0.9221
    0.2813    0.3006    0.9414
    0.2810    0.3228    0.9579
    0.2795    0.3447    0.9717
    0.2760    0.3667    0.9829
    0.2699    0.3892    0.9906
    0.2602    0.4123    0.9952
    0.2440    0.4358    0.9988
    0.2206    0.4603    0.9973
    0.1963    0.4847    0.9892
    0.1834    0.5074    0.9798
    0.1786    0.5289    0.9682
    0.1764    0.5499    0.9520
    0.1687    0.5703    0.9359
    0.1540    0.5902    0.9218
    0.1460    0.6091    0.9079
    0.1380    0.6276    0.8973
    0.1248    0.6459    0.8883
    0.1113    0.6635    0.8763
    0.0952    0.6798    0.8598
    0.0689    0.6948    0.8394
    0.0297    0.7082    0.8163
    0.0036    0.7203    0.7917
    0.0067    0.7312    0.7660
    0.0433    0.7411    0.7394
    0.0964    0.7500    0.7120
    0.1408    0.7584    0.6842
    0.1717    0.7670    0.6554
    0.1938    0.7758    0.6251
    0.2161    0.7843    0.5923
    0.2470    0.7918    0.5567
    0.2906    0.7973    0.5188
    0.3406    0.8008    0.4789
    0.3909    0.8029    0.4354
    0.4456    0.8024    0.3909
    0.5044    0.7993    0.3480
    0.5616    0.7942    0.3045
    0.6174    0.7876    0.2612
    0.6720    0.7793    0.2227
    0.7242    0.7698    0.1910
    0.7738    0.7598    0.1646
    0.8203    0.7498    0.1535
    0.8634    0.7406    0.1596
    0.9035    0.7330    0.1774
    0.9393    0.7288    0.2100
    0.9728    0.7298    0.2394
    0.9956    0.7434    0.2371
    0.9970    0.7659    0.2199
    0.9952    0.7893    0.2028
    0.9892    0.8136    0.1885
    0.9786    0.8386    0.1766
    0.9676    0.8639    0.1643
    0.9610    0.8890    0.1537
    0.9597    0.9135    0.1423
    0.9628    0.9373    0.1265
    0.9691    0.9606    0.1064
    0.9769    0.9839    0.0805


ans =

    0.2422    0.1504    0.6603
    0.2504    0.1650    0.7076
    0.2578    0.1818    0.7511
    0.2647    0.1978    0.7952
    0.2706    0.2147    0.8364
    0.2751    0.2342    0.8710
    0.2783    0.2559    0.8991
    0.2803    0.2782    0.9221
    0.2813    0.3006    0.9414
    0.2810    0.3228    0.9579
    0.2795    0.3447    0.9717
    0.2760    0.3667    0.9829
    0.2699    0.3892    0.9906
    0.2602    0.4123    0.9952
    0.2440    0.4358    0.9988
    0.2206    0.4603    0.9973
    0.1963    0.4847    0.9892
    0.1834    0.5074    0.9798
    0.1786    0.5289    0.9682
    0.1764    0.5499    0.9520
    0.1687    0.5703    0.9359
    0.1540    0.5902    0.9218
    0.1460    0.6091    0.9079
    0.1380    0.6276    0.8973
    0.1248    0.6459    0.8883
    0.1113    0.6635    0.8763
    0.0952    0.6798    0.8598
    0.0689    0.6948    0.8394
    0.0297    0.7082    0.8163
    0.0036    0.7203    0.7917
    0.0067    0.7312    0.7660
    0.0433    0.7411    0.7394
    0.0964    0.7500    0.7120
    0.1408    0.7584    0.6842
    0.1717    0.7670    0.6554
    0.1938    0.7758    0.6251
    0.2161    0.7843    0.5923
    0.2470    0.7918    0.5567
    0.2906    0.7973    0.5188
    0.3406    0.8008    0.4789
    0.3909    0.8029    0.4354
    0.4456    0.8024    0.3909
    0.5044    0.7993    0.3480
    0.5616    0.7942    0.3045
    0.6174    0.7876    0.2612
    0.6720    0.7793    0.2227
    0.7242    0.7698    0.1910
    0.7738    0.7598    0.1646
    0.8203    0.7498    0.1535
    0.8634    0.7406    0.1596
    0.9035    0.7330    0.1774
    0.9393    0.7288    0.2100
    0.9728    0.7298    0.2394
    0.9956    0.7434    0.2371
    0.9970    0.7659    0.2199
    0.9952    0.7893    0.2028
    0.9892    0.8136    0.1885
    0.9786    0.8386    0.1766
    0.9676    0.8639    0.1643
    0.9610    0.8890    0.1537
    0.9597    0.9135    0.1423
    0.9628    0.9373    0.1265
    0.9691    0.9606    0.1064
    0.9769    0.9839    0.0805


ans =

    0.2422    0.1504    0.6603
    0.2504    0.1650    0.7076
    0.2578    0.1818    0.7511
    0.2647    0.1978    0.7952
    0.2706    0.2147    0.8364
    0.2751    0.2342    0.8710
    0.2783    0.2559    0.8991
    0.2803    0.2782    0.9221
    0.2813    0.3006    0.9414
    0.2810    0.3228    0.9579
    0.2795    0.3447    0.9717
    0.2760    0.3667    0.9829
    0.2699    0.3892    0.9906
    0.2602    0.4123    0.9952
    0.2440    0.4358    0.9988
    0.2206    0.4603    0.9973
    0.1963    0.4847    0.9892
    0.1834    0.5074    0.9798
    0.1786    0.5289    0.9682
    0.1764    0.5499    0.9520
    0.1687    0.5703    0.9359
    0.1540    0.5902    0.9218
    0.1460    0.6091    0.9079
    0.1380    0.6276    0.8973
    0.1248    0.6459    0.8883
    0.1113    0.6635    0.8763
    0.0952    0.6798    0.8598
    0.0689    0.6948    0.8394
    0.0297    0.7082    0.8163
    0.0036    0.7203    0.7917
    0.0067    0.7312    0.7660
    0.0433    0.7411    0.7394
    0.0964    0.7500    0.7120
    0.1408    0.7584    0.6842
    0.1717    0.7670    0.6554
    0.1938    0.7758    0.6251
    0.2161    0.7843    0.5923
    0.2470    0.7918    0.5567
    0.2906    0.7973    0.5188
    0.3406    0.8008    0.4789
    0.3909    0.8029    0.4354
    0.4456    0.8024    0.3909
    0.5044    0.7993    0.3480
    0.5616    0.7942    0.3045
    0.6174    0.7876    0.2612
    0.6720    0.7793    0.2227
    0.7242    0.7698    0.1910
    0.7738    0.7598    0.1646
    0.8203    0.7498    0.1535
    0.8634    0.7406    0.1596
    0.9035    0.7330    0.1774
    0.9393    0.7288    0.2100
    0.9728    0.7298    0.2394
    0.9956    0.7434    0.2371
    0.9970    0.7659    0.2199
    0.9952    0.7893    0.2028
    0.9892    0.8136    0.1885
    0.9786    0.8386    0.1766
    0.9676    0.8639    0.1643
    0.9610    0.8890    0.1537
    0.9597    0.9135    0.1423
    0.9628    0.9373    0.1265
    0.9691    0.9606    0.1064
    0.9769    0.9839    0.0805


ans =

    0.2422    0.1504    0.6603
    0.2504    0.1650    0.7076
    0.2578    0.1818    0.7511
    0.2647    0.1978    0.7952
    0.2706    0.2147    0.8364
    0.2751    0.2342    0.8710
    0.2783    0.2559    0.8991
    0.2803    0.2782    0.9221
    0.2813    0.3006    0.9414
    0.2810    0.3228    0.9579
    0.2795    0.3447    0.9717
    0.2760    0.3667    0.9829
    0.2699    0.3892    0.9906
    0.2602    0.4123    0.9952
    0.2440    0.4358    0.9988
    0.2206    0.4603    0.9973
    0.1963    0.4847    0.9892
    0.1834    0.5074    0.9798
    0.1786    0.5289    0.9682
    0.1764    0.5499    0.9520
    0.1687    0.5703    0.9359
    0.1540    0.5902    0.9218
    0.1460    0.6091    0.9079
    0.1380    0.6276    0.8973
    0.1248    0.6459    0.8883
    0.1113    0.6635    0.8763
    0.0952    0.6798    0.8598
    0.0689    0.6948    0.8394
    0.0297    0.7082    0.8163
    0.0036    0.7203    0.7917
    0.0067    0.7312    0.7660
    0.0433    0.7411    0.7394
    0.0964    0.7500    0.7120
    0.1408    0.7584    0.6842
    0.1717    0.7670    0.6554
    0.1938    0.7758    0.6251
    0.2161    0.7843    0.5923
    0.2470    0.7918    0.5567
    0.2906    0.7973    0.5188
    0.3406    0.8008    0.4789
    0.3909    0.8029    0.4354
    0.4456    0.8024    0.3909
    0.5044    0.7993    0.3480
    0.5616    0.7942    0.3045
    0.6174    0.7876    0.2612
    0.6720    0.7793    0.2227
    0.7242    0.7698    0.1910
    0.7738    0.7598    0.1646
    0.8203    0.7498    0.1535
    0.8634    0.7406    0.1596
    0.9035    0.7330    0.1774
    0.9393    0.7288    0.2100
    0.9728    0.7298    0.2394
    0.9956    0.7434    0.2371
    0.9970    0.7659    0.2199
    0.9952    0.7893    0.2028
    0.9892    0.8136    0.1885
    0.9786    0.8386    0.1766
    0.9676    0.8639    0.1643
    0.9610    0.8890    0.1537
    0.9597    0.9135    0.1423
    0.9628    0.9373    0.1265
    0.9691    0.9606    0.1064
    0.9769    0.9839    0.0805


ans =

    0.2422    0.1504    0.6603
    0.2504    0.1650    0.7076
    0.2578    0.1818    0.7511
    0.2647    0.1978    0.7952
    0.2706    0.2147    0.8364
    0.2751    0.2342    0.8710
    0.2783    0.2559    0.8991
    0.2803    0.2782    0.9221
    0.2813    0.3006    0.9414
    0.2810    0.3228    0.9579
    0.2795    0.3447    0.9717
    0.2760    0.3667    0.9829
    0.2699    0.3892    0.9906
    0.2602    0.4123    0.9952
    0.2440    0.4358    0.9988
    0.2206    0.4603    0.9973
    0.1963    0.4847    0.9892
    0.1834    0.5074    0.9798
    0.1786    0.5289    0.9682
    0.1764    0.5499    0.9520
    0.1687    0.5703    0.9359
    0.1540    0.5902    0.9218
    0.1460    0.6091    0.9079
    0.1380    0.6276    0.8973
    0.1248    0.6459    0.8883
    0.1113    0.6635    0.8763
    0.0952    0.6798    0.8598
    0.0689    0.6948    0.8394
    0.0297    0.7082    0.8163
    0.0036    0.7203    0.7917
    0.0067    0.7312    0.7660
    0.0433    0.7411    0.7394
    0.0964    0.7500    0.7120
    0.1408    0.7584    0.6842
    0.1717    0.7670    0.6554
    0.1938    0.7758    0.6251
    0.2161    0.7843    0.5923
    0.2470    0.7918    0.5567
    0.2906    0.7973    0.5188
    0.3406    0.8008    0.4789
    0.3909    0.8029    0.4354
    0.4456    0.8024    0.3909
    0.5044    0.7993    0.3480
    0.5616    0.7942    0.3045
    0.6174    0.7876    0.2612
    0.6720    0.7793    0.2227
    0.7242    0.7698    0.1910
    0.7738    0.7598    0.1646
    0.8203    0.7498    0.1535
    0.8634    0.7406    0.1596
    0.9035    0.7330    0.1774
    0.9393    0.7288    0.2100
    0.9728    0.7298    0.2394
    0.9956    0.7434    0.2371
    0.9970    0.7659    0.2199
    0.9952    0.7893    0.2028
    0.9892    0.8136    0.1885
    0.9786    0.8386    0.1766
    0.9676    0.8639    0.1643
    0.9610    0.8890    0.1537
    0.9597    0.9135    0.1423
    0.9628    0.9373    0.1265
    0.9691    0.9606    0.1064
    0.9769    0.9839    0.0805


ans =

    0.2422    0.1504    0.6603
    0.2504    0.1650    0.7076
    0.2578    0.1818    0.7511
    0.2647    0.1978    0.7952
    0.2706    0.2147    0.8364
    0.2751    0.2342    0.8710
    0.2783    0.2559    0.8991
    0.2803    0.2782    0.9221
    0.2813    0.3006    0.9414
    0.2810    0.3228    0.9579
    0.2795    0.3447    0.9717
    0.2760    0.3667    0.9829
    0.2699    0.3892    0.9906
    0.2602    0.4123    0.9952
    0.2440    0.4358    0.9988
    0.2206    0.4603    0.9973
    0.1963    0.4847    0.9892
    0.1834    0.5074    0.9798
    0.1786    0.5289    0.9682
    0.1764    0.5499    0.9520
    0.1687    0.5703    0.9359
    0.1540    0.5902    0.9218
    0.1460    0.6091    0.9079
    0.1380    0.6276    0.8973
    0.1248    0.6459    0.8883
    0.1113    0.6635    0.8763
    0.0952    0.6798    0.8598
    0.0689    0.6948    0.8394
    0.0297    0.7082    0.8163
    0.0036    0.7203    0.7917
    0.0067    0.7312    0.7660
    0.0433    0.7411    0.7394
    0.0964    0.7500    0.7120
    0.1408    0.7584    0.6842
    0.1717    0.7670    0.6554
    0.1938    0.7758    0.6251
    0.2161    0.7843    0.5923
    0.2470    0.7918    0.5567
    0.2906    0.7973    0.5188
    0.3406    0.8008    0.4789
    0.3909    0.8029    0.4354
    0.4456    0.8024    0.3909
    0.5044    0.7993    0.3480
    0.5616    0.7942    0.3045
    0.6174    0.7876    0.2612
    0.6720    0.7793    0.2227
    0.7242    0.7698    0.1910
    0.7738    0.7598    0.1646
    0.8203    0.7498    0.1535
    0.8634    0.7406    0.1596
    0.9035    0.7330    0.1774
    0.9393    0.7288    0.2100
    0.9728    0.7298    0.2394
    0.9956    0.7434    0.2371
    0.9970    0.7659    0.2199
    0.9952    0.7893    0.2028
    0.9892    0.8136    0.1885
    0.9786    0.8386    0.1766
    0.9676    0.8639    0.1643
    0.9610    0.8890    0.1537
    0.9597    0.9135    0.1423
    0.9628    0.9373    0.1265
    0.9691    0.9606    0.1064
    0.9769    0.9839    0.0805


ans =

    0.2422    0.1504    0.6603
    0.2504    0.1650    0.7076
    0.2578    0.1818    0.7511
    0.2647    0.1978    0.7952
    0.2706    0.2147    0.8364
    0.2751    0.2342    0.8710
    0.2783    0.2559    0.8991
    0.2803    0.2782    0.9221
    0.2813    0.3006    0.9414
    0.2810    0.3228    0.9579
    0.2795    0.3447    0.9717
    0.2760    0.3667    0.9829
    0.2699    0.3892    0.9906
    0.2602    0.4123    0.9952
    0.2440    0.4358    0.9988
    0.2206    0.4603    0.9973
    0.1963    0.4847    0.9892
    0.1834    0.5074    0.9798
    0.1786    0.5289    0.9682
    0.1764    0.5499    0.9520
    0.1687    0.5703    0.9359
    0.1540    0.5902    0.9218
    0.1460    0.6091    0.9079
    0.1380    0.6276    0.8973
    0.1248    0.6459    0.8883
    0.1113    0.6635    0.8763
    0.0952    0.6798    0.8598
    0.0689    0.6948    0.8394
    0.0297    0.7082    0.8163
    0.0036    0.7203    0.7917
    0.0067    0.7312    0.7660
    0.0433    0.7411    0.7394
    0.0964    0.7500    0.7120
    0.1408    0.7584    0.6842
    0.1717    0.7670    0.6554
    0.1938    0.7758    0.6251
    0.2161    0.7843    0.5923
    0.2470    0.7918    0.5567
    0.2906    0.7973    0.5188
    0.3406    0.8008    0.4789
    0.3909    0.8029    0.4354
    0.4456    0.8024    0.3909
    0.5044    0.7993    0.3480
    0.5616    0.7942    0.3045
    0.6174    0.7876    0.2612
    0.6720    0.7793    0.2227
    0.7242    0.7698    0.1910
    0.7738    0.7598    0.1646
    0.8203    0.7498    0.1535
    0.8634    0.7406    0.1596
    0.9035    0.7330    0.1774
    0.9393    0.7288    0.2100
    0.9728    0.7298    0.2394
    0.9956    0.7434    0.2371
    0.9970    0.7659    0.2199
    0.9952    0.7893    0.2028
    0.9892    0.8136    0.1885
    0.9786    0.8386    0.1766
    0.9676    0.8639    0.1643
    0.9610    0.8890    0.1537
    0.9597    0.9135    0.1423
    0.9628    0.9373    0.1265
    0.9691    0.9606    0.1064
    0.9769    0.9839    0.0805


ans =

    0.2422    0.1504    0.6603
    0.2504    0.1650    0.7076
    0.2578    0.1818    0.7511
    0.2647    0.1978    0.7952
    0.2706    0.2147    0.8364
    0.2751    0.2342    0.8710
    0.2783    0.2559    0.8991
    0.2803    0.2782    0.9221
    0.2813    0.3006    0.9414
    0.2810    0.3228    0.9579
    0.2795    0.3447    0.9717
    0.2760    0.3667    0.9829
    0.2699    0.3892    0.9906
    0.2602    0.4123    0.9952
    0.2440    0.4358    0.9988
    0.2206    0.4603    0.9973
    0.1963    0.4847    0.9892
    0.1834    0.5074    0.9798
    0.1786    0.5289    0.9682
    0.1764    0.5499    0.9520
    0.1687    0.5703    0.9359
    0.1540    0.5902    0.9218
    0.1460    0.6091    0.9079
    0.1380    0.6276    0.8973
    0.1248    0.6459    0.8883
    0.1113    0.6635    0.8763
    0.0952    0.6798    0.8598
    0.0689    0.6948    0.8394
    0.0297    0.7082    0.8163
    0.0036    0.7203    0.7917
    0.0067    0.7312    0.7660
    0.0433    0.7411    0.7394
    0.0964    0.7500    0.7120
    0.1408    0.7584    0.6842
    0.1717    0.7670    0.6554
    0.1938    0.7758    0.6251
    0.2161    0.7843    0.5923
    0.2470    0.7918    0.5567
    0.2906    0.7973    0.5188
    0.3406    0.8008    0.4789
    0.3909    0.8029    0.4354
    0.4456    0.8024    0.3909
    0.5044    0.7993    0.3480
    0.5616    0.7942    0.3045
    0.6174    0.7876    0.2612
    0.6720    0.7793    0.2227
    0.7242    0.7698    0.1910
    0.7738    0.7598    0.1646
    0.8203    0.7498    0.1535
    0.8634    0.7406    0.1596
    0.9035    0.7330    0.1774
    0.9393    0.7288    0.2100
    0.9728    0.7298    0.2394
    0.9956    0.7434    0.2371
    0.9970    0.7659    0.2199
    0.9952    0.7893    0.2028
    0.9892    0.8136    0.1885
    0.9786    0.8386    0.1766
    0.9676    0.8639    0.1643
    0.9610    0.8890    0.1537
    0.9597    0.9135    0.1423
    0.9628    0.9373    0.1265
    0.9691    0.9606    0.1064
    0.9769    0.9839    0.0805


ans =

    0.2422    0.1504    0.6603
    0.2504    0.1650    0.7076
    0.2578    0.1818    0.7511
    0.2647    0.1978    0.7952
    0.2706    0.2147    0.8364
    0.2751    0.2342    0.8710
    0.2783    0.2559    0.8991
    0.2803    0.2782    0.9221
    0.2813    0.3006    0.9414
    0.2810    0.3228    0.9579
    0.2795    0.3447    0.9717
    0.2760    0.3667    0.9829
    0.2699    0.3892    0.9906
    0.2602    0.4123    0.9952
    0.2440    0.4358    0.9988
    0.2206    0.4603    0.9973
    0.1963    0.4847    0.9892
    0.1834    0.5074    0.9798
    0.1786    0.5289    0.9682
    0.1764    0.5499    0.9520
    0.1687    0.5703    0.9359
    0.1540    0.5902    0.9218
    0.1460    0.6091    0.9079
    0.1380    0.6276    0.8973
    0.1248    0.6459    0.8883
    0.1113    0.6635    0.8763
    0.0952    0.6798    0.8598
    0.0689    0.6948    0.8394
    0.0297    0.7082    0.8163
    0.0036    0.7203    0.7917
    0.0067    0.7312    0.7660
    0.0433    0.7411    0.7394
    0.0964    0.7500    0.7120
    0.1408    0.7584    0.6842
    0.1717    0.7670    0.6554
    0.1938    0.7758    0.6251
    0.2161    0.7843    0.5923
    0.2470    0.7918    0.5567
    0.2906    0.7973    0.5188
    0.3406    0.8008    0.4789
    0.3909    0.8029    0.4354
    0.4456    0.8024    0.3909
    0.5044    0.7993    0.3480
    0.5616    0.7942    0.3045
    0.6174    0.7876    0.2612
    0.6720    0.7793    0.2227
    0.7242    0.7698    0.1910
    0.7738    0.7598    0.1646
    0.8203    0.7498    0.1535
    0.8634    0.7406    0.1596
    0.9035    0.7330    0.1774
    0.9393    0.7288    0.2100
    0.9728    0.7298    0.2394
    0.9956    0.7434    0.2371
    0.9970    0.7659    0.2199
    0.9952    0.7893    0.2028
    0.9892    0.8136    0.1885
    0.9786    0.8386    0.1766
    0.9676    0.8639    0.1643
    0.9610    0.8890    0.1537
    0.9597    0.9135    0.1423
    0.9628    0.9373    0.1265
    0.9691    0.9606    0.1064
    0.9769    0.9839    0.0805


ans =

    0.2422    0.1504    0.6603
    0.2504    0.1650    0.7076
    0.2578    0.1818    0.7511
    0.2647    0.1978    0.7952
    0.2706    0.2147    0.8364
    0.2751    0.2342    0.8710
    0.2783    0.2559    0.8991
    0.2803    0.2782    0.9221
    0.2813    0.3006    0.9414
    0.2810    0.3228    0.9579
    0.2795    0.3447    0.9717
    0.2760    0.3667    0.9829
    0.2699    0.3892    0.9906
    0.2602    0.4123    0.9952
    0.2440    0.4358    0.9988
    0.2206    0.4603    0.9973
    0.1963    0.4847    0.9892
    0.1834    0.5074    0.9798
    0.1786    0.5289    0.9682
    0.1764    0.5499    0.9520
    0.1687    0.5703    0.9359
    0.1540    0.5902    0.9218
    0.1460    0.6091    0.9079
    0.1380    0.6276    0.8973
    0.1248    0.6459    0.8883
    0.1113    0.6635    0.8763
    0.0952    0.6798    0.8598
    0.0689    0.6948    0.8394
    0.0297    0.7082    0.8163
    0.0036    0.7203    0.7917
    0.0067    0.7312    0.7660
    0.0433    0.7411    0.7394
    0.0964    0.7500    0.7120
    0.1408    0.7584    0.6842
    0.1717    0.7670    0.6554
    0.1938    0.7758    0.6251
    0.2161    0.7843    0.5923
    0.2470    0.7918    0.5567
    0.2906    0.7973    0.5188
    0.3406    0.8008    0.4789
    0.3909    0.8029    0.4354
    0.4456    0.8024    0.3909
    0.5044    0.7993    0.3480
    0.5616    0.7942    0.3045
    0.6174    0.7876    0.2612
    0.6720    0.7793    0.2227
    0.7242    0.7698    0.1910
    0.7738    0.7598    0.1646
    0.8203    0.7498    0.1535
    0.8634    0.7406    0.1596
    0.9035    0.7330    0.1774
    0.9393    0.7288    0.2100
    0.9728    0.7298    0.2394
    0.9956    0.7434    0.2371
    0.9970    0.7659    0.2199
    0.9952    0.7893    0.2028
    0.9892    0.8136    0.1885
    0.9786    0.8386    0.1766
    0.9676    0.8639    0.1643
    0.9610    0.8890    0.1537
    0.9597    0.9135    0.1423
    0.9628    0.9373    0.1265
    0.9691    0.9606    0.1064
    0.9769    0.9839    0.0805


ans =

    0.2422    0.1504    0.6603
    0.2504    0.1650    0.7076
    0.2578    0.1818    0.7511
    0.2647    0.1978    0.7952
    0.2706    0.2147    0.8364
    0.2751    0.2342    0.8710
    0.2783    0.2559    0.8991
    0.2803    0.2782    0.9221
    0.2813    0.3006    0.9414
    0.2810    0.3228    0.9579
    0.2795    0.3447    0.9717
    0.2760    0.3667    0.9829
    0.2699    0.3892    0.9906
    0.2602    0.4123    0.9952
    0.2440    0.4358    0.9988
    0.2206    0.4603    0.9973
    0.1963    0.4847    0.9892
    0.1834    0.5074    0.9798
    0.1786    0.5289    0.9682
    0.1764    0.5499    0.9520
    0.1687    0.5703    0.9359
    0.1540    0.5902    0.9218
    0.1460    0.6091    0.9079
    0.1380    0.6276    0.8973
    0.1248    0.6459    0.8883
    0.1113    0.6635    0.8763
    0.0952    0.6798    0.8598
    0.0689    0.6948    0.8394
    0.0297    0.7082    0.8163
    0.0036    0.7203    0.7917
    0.0067    0.7312    0.7660
    0.0433    0.7411    0.7394
    0.0964    0.7500    0.7120
    0.1408    0.7584    0.6842
    0.1717    0.7670    0.6554
    0.1938    0.7758    0.6251
    0.2161    0.7843    0.5923
    0.2470    0.7918    0.5567
    0.2906    0.7973    0.5188
    0.3406    0.8008    0.4789
    0.3909    0.8029    0.4354
    0.4456    0.8024    0.3909
    0.5044    0.7993    0.3480
    0.5616    0.7942    0.3045
    0.6174    0.7876    0.2612
    0.6720    0.7793    0.2227
    0.7242    0.7698    0.1910
    0.7738    0.7598    0.1646
    0.8203    0.7498    0.1535
    0.8634    0.7406    0.1596
    0.9035    0.7330    0.1774
    0.9393    0.7288    0.2100
    0.9728    0.7298    0.2394
    0.9956    0.7434    0.2371
    0.9970    0.7659    0.2199
    0.9952    0.7893    0.2028
    0.9892    0.8136    0.1885
    0.9786    0.8386    0.1766
    0.9676    0.8639    0.1643
    0.9610    0.8890    0.1537
    0.9597    0.9135    0.1423
    0.9628    0.9373    0.1265
    0.9691    0.9606    0.1064
    0.9769    0.9839    0.0805


ans =

    0.2422    0.1504    0.6603
    0.2504    0.1650    0.7076
    0.2578    0.1818    0.7511
    0.2647    0.1978    0.7952
    0.2706    0.2147    0.8364
    0.2751    0.2342    0.8710
    0.2783    0.2559    0.8991
    0.2803    0.2782    0.9221
    0.2813    0.3006    0.9414
    0.2810    0.3228    0.9579
    0.2795    0.3447    0.9717
    0.2760    0.3667    0.9829
    0.2699    0.3892    0.9906
    0.2602    0.4123    0.9952
    0.2440    0.4358    0.9988
    0.2206    0.4603    0.9973
    0.1963    0.4847    0.9892
    0.1834    0.5074    0.9798
    0.1786    0.5289    0.9682
    0.1764    0.5499    0.9520
    0.1687    0.5703    0.9359
    0.1540    0.5902    0.9218
    0.1460    0.6091    0.9079
    0.1380    0.6276    0.8973
    0.1248    0.6459    0.8883
    0.1113    0.6635    0.8763
    0.0952    0.6798    0.8598
    0.0689    0.6948    0.8394
    0.0297    0.7082    0.8163
    0.0036    0.7203    0.7917
    0.0067    0.7312    0.7660
    0.0433    0.7411    0.7394
    0.0964    0.7500    0.7120
    0.1408    0.7584    0.6842
    0.1717    0.7670    0.6554
    0.1938    0.7758    0.6251
    0.2161    0.7843    0.5923
    0.2470    0.7918    0.5567
    0.2906    0.7973    0.5188
    0.3406    0.8008    0.4789
    0.3909    0.8029    0.4354
    0.4456    0.8024    0.3909
    0.5044    0.7993    0.3480
    0.5616    0.7942    0.3045
    0.6174    0.7876    0.2612
    0.6720    0.7793    0.2227
    0.7242    0.7698    0.1910
    0.7738    0.7598    0.1646
    0.8203    0.7498    0.1535
    0.8634    0.7406    0.1596
    0.9035    0.7330    0.1774
    0.9393    0.7288    0.2100
    0.9728    0.7298    0.2394
    0.9956    0.7434    0.2371
    0.9970    0.7659    0.2199
    0.9952    0.7893    0.2028
    0.9892    0.8136    0.1885
    0.9786    0.8386    0.1766
    0.9676    0.8639    0.1643
    0.9610    0.8890    0.1537
    0.9597    0.9135    0.1423
    0.9628    0.9373    0.1265
    0.9691    0.9606    0.1064
    0.9769    0.9839    0.0805


ans =

    0.2422    0.1504    0.6603
    0.2504    0.1650    0.7076
    0.2578    0.1818    0.7511
    0.2647    0.1978    0.7952
    0.2706    0.2147    0.8364
    0.2751    0.2342    0.8710
    0.2783    0.2559    0.8991
    0.2803    0.2782    0.9221
    0.2813    0.3006    0.9414
    0.2810    0.3228    0.9579
    0.2795    0.3447    0.9717
    0.2760    0.3667    0.9829
    0.2699    0.3892    0.9906
    0.2602    0.4123    0.9952
    0.2440    0.4358    0.9988
    0.2206    0.4603    0.9973
    0.1963    0.4847    0.9892
    0.1834    0.5074    0.9798
    0.1786    0.5289    0.9682
    0.1764    0.5499    0.9520
    0.1687    0.5703    0.9359
    0.1540    0.5902    0.9218
    0.1460    0.6091    0.9079
    0.1380    0.6276    0.8973
    0.1248    0.6459    0.8883
    0.1113    0.6635    0.8763
    0.0952    0.6798    0.8598
    0.0689    0.6948    0.8394
    0.0297    0.7082    0.8163
    0.0036    0.7203    0.7917
    0.0067    0.7312    0.7660
    0.0433    0.7411    0.7394
    0.0964    0.7500    0.7120
    0.1408    0.7584    0.6842
    0.1717    0.7670    0.6554
    0.1938    0.7758    0.6251
    0.2161    0.7843    0.5923
    0.2470    0.7918    0.5567
    0.2906    0.7973    0.5188
    0.3406    0.8008    0.4789
    0.3909    0.8029    0.4354
    0.4456    0.8024    0.3909
    0.5044    0.7993    0.3480
    0.5616    0.7942    0.3045
    0.6174    0.7876    0.2612
    0.6720    0.7793    0.2227
    0.7242    0.7698    0.1910
    0.7738    0.7598    0.1646
    0.8203    0.7498    0.1535
    0.8634    0.7406    0.1596
    0.9035    0.7330    0.1774
    0.9393    0.7288    0.2100
    0.9728    0.7298    0.2394
    0.9956    0.7434    0.2371
    0.9970    0.7659    0.2199
    0.9952    0.7893    0.2028
    0.9892    0.8136    0.1885
    0.9786    0.8386    0.1766
    0.9676    0.8639    0.1643
    0.9610    0.8890    0.1537
    0.9597    0.9135    0.1423
    0.9628    0.9373    0.1265
    0.9691    0.9606    0.1064
    0.9769    0.9839    0.0805


ans =

    0.2422    0.1504    0.6603
    0.2504    0.1650    0.7076
    0.2578    0.1818    0.7511
    0.2647    0.1978    0.7952
    0.2706    0.2147    0.8364
    0.2751    0.2342    0.8710
    0.2783    0.2559    0.8991
    0.2803    0.2782    0.9221
    0.2813    0.3006    0.9414
    0.2810    0.3228    0.9579
    0.2795    0.3447    0.9717
    0.2760    0.3667    0.9829
    0.2699    0.3892    0.9906
    0.2602    0.4123    0.9952
    0.2440    0.4358    0.9988
    0.2206    0.4603    0.9973
    0.1963    0.4847    0.9892
    0.1834    0.5074    0.9798
    0.1786    0.5289    0.9682
    0.1764    0.5499    0.9520
    0.1687    0.5703    0.9359
    0.1540    0.5902    0.9218
    0.1460    0.6091    0.9079
    0.1380    0.6276    0.8973
    0.1248    0.6459    0.8883
    0.1113    0.6635    0.8763
    0.0952    0.6798    0.8598
    0.0689    0.6948    0.8394
    0.0297    0.7082    0.8163
    0.0036    0.7203    0.7917
    0.0067    0.7312    0.7660
    0.0433    0.7411    0.7394
    0.0964    0.7500    0.7120
    0.1408    0.7584    0.6842
    0.1717    0.7670    0.6554
    0.1938    0.7758    0.6251
    0.2161    0.7843    0.5923
    0.2470    0.7918    0.5567
    0.2906    0.7973    0.5188
    0.3406    0.8008    0.4789
    0.3909    0.8029    0.4354
    0.4456    0.8024    0.3909
    0.5044    0.7993    0.3480
    0.5616    0.7942    0.3045
    0.6174    0.7876    0.2612
    0.6720    0.7793    0.2227
    0.7242    0.7698    0.1910
    0.7738    0.7598    0.1646
    0.8203    0.7498    0.1535
    0.8634    0.7406    0.1596
    0.9035    0.7330    0.1774
    0.9393    0.7288    0.2100
    0.9728    0.7298    0.2394
    0.9956    0.7434    0.2371
    0.9970    0.7659    0.2199
    0.9952    0.7893    0.2028
    0.9892    0.8136    0.1885
    0.9786    0.8386    0.1766
    0.9676    0.8639    0.1643
    0.9610    0.8890    0.1537
    0.9597    0.9135    0.1423
    0.9628    0.9373    0.1265
    0.9691    0.9606    0.1064
    0.9769    0.9839    0.0805


ans =

    0.2422    0.1504    0.6603
    0.2504    0.1650    0.7076
    0.2578    0.1818    0.7511
    0.2647    0.1978    0.7952
    0.2706    0.2147    0.8364
    0.2751    0.2342    0.8710
    0.2783    0.2559    0.8991
    0.2803    0.2782    0.9221
    0.2813    0.3006    0.9414
    0.2810    0.3228    0.9579
    0.2795    0.3447    0.9717
    0.2760    0.3667    0.9829
    0.2699    0.3892    0.9906
    0.2602    0.4123    0.9952
    0.2440    0.4358    0.9988
    0.2206    0.4603    0.9973
    0.1963    0.4847    0.9892
    0.1834    0.5074    0.9798
    0.1786    0.5289    0.9682
    0.1764    0.5499    0.9520
    0.1687    0.5703    0.9359
    0.1540    0.5902    0.9218
    0.1460    0.6091    0.9079
    0.1380    0.6276    0.8973
    0.1248    0.6459    0.8883
    0.1113    0.6635    0.8763
    0.0952    0.6798    0.8598
    0.0689    0.6948    0.8394
    0.0297    0.7082    0.8163
    0.0036    0.7203    0.7917
    0.0067    0.7312    0.7660
    0.0433    0.7411    0.7394
    0.0964    0.7500    0.7120
    0.1408    0.7584    0.6842
    0.1717    0.7670    0.6554
    0.1938    0.7758    0.6251
    0.2161    0.7843    0.5923
    0.2470    0.7918    0.5567
    0.2906    0.7973    0.5188
    0.3406    0.8008    0.4789
    0.3909    0.8029    0.4354
    0.4456    0.8024    0.3909
    0.5044    0.7993    0.3480
    0.5616    0.7942    0.3045
    0.6174    0.7876    0.2612
    0.6720    0.7793    0.2227
    0.7242    0.7698    0.1910
    0.7738    0.7598    0.1646
    0.8203    0.7498    0.1535
    0.8634    0.7406    0.1596
    0.9035    0.7330    0.1774
    0.9393    0.7288    0.2100
    0.9728    0.7298    0.2394
    0.9956    0.7434    0.2371
    0.9970    0.7659    0.2199
    0.9952    0.7893    0.2028
    0.9892    0.8136    0.1885
    0.9786    0.8386    0.1766
    0.9676    0.8639    0.1643
    0.9610    0.8890    0.1537
    0.9597    0.9135    0.1423
    0.9628    0.9373    0.1265
    0.9691    0.9606    0.1064
    0.9769    0.9839    0.0805


ans =

    0.2422    0.1504    0.6603
    0.2504    0.1650    0.7076
    0.2578    0.1818    0.7511
    0.2647    0.1978    0.7952
    0.2706    0.2147    0.8364
    0.2751    0.2342    0.8710
    0.2783    0.2559    0.8991
    0.2803    0.2782    0.9221
    0.2813    0.3006    0.9414
    0.2810    0.3228    0.9579
    0.2795    0.3447    0.9717
    0.2760    0.3667    0.9829
    0.2699    0.3892    0.9906
    0.2602    0.4123    0.9952
    0.2440    0.4358    0.9988
    0.2206    0.4603    0.9973
    0.1963    0.4847    0.9892
    0.1834    0.5074    0.9798
    0.1786    0.5289    0.9682
    0.1764    0.5499    0.9520
    0.1687    0.5703    0.9359
    0.1540    0.5902    0.9218
    0.1460    0.6091    0.9079
    0.1380    0.6276    0.8973
    0.1248    0.6459    0.8883
    0.1113    0.6635    0.8763
    0.0952    0.6798    0.8598
    0.0689    0.6948    0.8394
    0.0297    0.7082    0.8163
    0.0036    0.7203    0.7917
    0.0067    0.7312    0.7660
    0.0433    0.7411    0.7394
    0.0964    0.7500    0.7120
    0.1408    0.7584    0.6842
    0.1717    0.7670    0.6554
    0.1938    0.7758    0.6251
    0.2161    0.7843    0.5923
    0.2470    0.7918    0.5567
    0.2906    0.7973    0.5188
    0.3406    0.8008    0.4789
    0.3909    0.8029    0.4354
    0.4456    0.8024    0.3909
    0.5044    0.7993    0.3480
    0.5616    0.7942    0.3045
    0.6174    0.7876    0.2612
    0.6720    0.7793    0.2227
    0.7242    0.7698    0.1910
    0.7738    0.7598    0.1646
    0.8203    0.7498    0.1535
    0.8634    0.7406    0.1596
    0.9035    0.7330    0.1774
    0.9393    0.7288    0.2100
    0.9728    0.7298    0.2394
    0.9956    0.7434    0.2371
    0.9970    0.7659    0.2199
    0.9952    0.7893    0.2028
    0.9892    0.8136    0.1885
    0.9786    0.8386    0.1766
    0.9676    0.8639    0.1643
    0.9610    0.8890    0.1537
    0.9597    0.9135    0.1423
    0.9628    0.9373    0.1265
    0.9691    0.9606    0.1064
    0.9769    0.9839    0.0805


ans =

    0.2422    0.1504    0.6603
    0.2504    0.1650    0.7076
    0.2578    0.1818    0.7511
    0.2647    0.1978    0.7952
    0.2706    0.2147    0.8364
    0.2751    0.2342    0.8710
    0.2783    0.2559    0.8991
    0.2803    0.2782    0.9221
    0.2813    0.3006    0.9414
    0.2810    0.3228    0.9579
    0.2795    0.3447    0.9717
    0.2760    0.3667    0.9829
    0.2699    0.3892    0.9906
    0.2602    0.4123    0.9952
    0.2440    0.4358    0.9988
    0.2206    0.4603    0.9973
    0.1963    0.4847    0.9892
    0.1834    0.5074    0.9798
    0.1786    0.5289    0.9682
    0.1764    0.5499    0.9520
    0.1687    0.5703    0.9359
    0.1540    0.5902    0.9218
    0.1460    0.6091    0.9079
    0.1380    0.6276    0.8973
    0.1248    0.6459    0.8883
    0.1113    0.6635    0.8763
    0.0952    0.6798    0.8598
    0.0689    0.6948    0.8394
    0.0297    0.7082    0.8163
    0.0036    0.7203    0.7917
    0.0067    0.7312    0.7660
    0.0433    0.7411    0.7394
    0.0964    0.7500    0.7120
    0.1408    0.7584    0.6842
    0.1717    0.7670    0.6554
    0.1938    0.7758    0.6251
    0.2161    0.7843    0.5923
    0.2470    0.7918    0.5567
    0.2906    0.7973    0.5188
    0.3406    0.8008    0.4789
    0.3909    0.8029    0.4354
    0.4456    0.8024    0.3909
    0.5044    0.7993    0.3480
    0.5616    0.7942    0.3045
    0.6174    0.7876    0.2612
    0.6720    0.7793    0.2227
    0.7242    0.7698    0.1910
    0.7738    0.7598    0.1646
    0.8203    0.7498    0.1535
    0.8634    0.7406    0.1596
    0.9035    0.7330    0.1774
    0.9393    0.7288    0.2100
    0.9728    0.7298    0.2394
    0.9956    0.7434    0.2371
    0.9970    0.7659    0.2199
    0.9952    0.7893    0.2028
    0.9892    0.8136    0.1885
    0.9786    0.8386    0.1766
    0.9676    0.8639    0.1643
    0.9610    0.8890    0.1537
    0.9597    0.9135    0.1423
    0.9628    0.9373    0.1265
    0.9691    0.9606    0.1064
    0.9769    0.9839    0.0805


ans =

    0.2422    0.1504    0.6603
    0.2504    0.1650    0.7076
    0.2578    0.1818    0.7511
    0.2647    0.1978    0.7952
    0.2706    0.2147    0.8364
    0.2751    0.2342    0.8710
    0.2783    0.2559    0.8991
    0.2803    0.2782    0.9221
    0.2813    0.3006    0.9414
    0.2810    0.3228    0.9579
    0.2795    0.3447    0.9717
    0.2760    0.3667    0.9829
    0.2699    0.3892    0.9906
    0.2602    0.4123    0.9952
    0.2440    0.4358    0.9988
    0.2206    0.4603    0.9973
    0.1963    0.4847    0.9892
    0.1834    0.5074    0.9798
    0.1786    0.5289    0.9682
    0.1764    0.5499    0.9520
    0.1687    0.5703    0.9359
    0.1540    0.5902    0.9218
    0.1460    0.6091    0.9079
    0.1380    0.6276    0.8973
    0.1248    0.6459    0.8883
    0.1113    0.6635    0.8763
    0.0952    0.6798    0.8598
    0.0689    0.6948    0.8394
    0.0297    0.7082    0.8163
    0.0036    0.7203    0.7917
    0.0067    0.7312    0.7660
    0.0433    0.7411    0.7394
    0.0964    0.7500    0.7120
    0.1408    0.7584    0.6842
    0.1717    0.7670    0.6554
    0.1938    0.7758    0.6251
    0.2161    0.7843    0.5923
    0.2470    0.7918    0.5567
    0.2906    0.7973    0.5188
    0.3406    0.8008    0.4789
    0.3909    0.8029    0.4354
    0.4456    0.8024    0.3909
    0.5044    0.7993    0.3480
    0.5616    0.7942    0.3045
    0.6174    0.7876    0.2612
    0.6720    0.7793    0.2227
    0.7242    0.7698    0.1910
    0.7738    0.7598    0.1646
    0.8203    0.7498    0.1535
    0.8634    0.7406    0.1596
    0.9035    0.7330    0.1774
    0.9393    0.7288    0.2100
    0.9728    0.7298    0.2394
    0.9956    0.7434    0.2371
    0.9970    0.7659    0.2199
    0.9952    0.7893    0.2028
    0.9892    0.8136    0.1885
    0.9786    0.8386    0.1766
    0.9676    0.8639    0.1643
    0.9610    0.8890    0.1537
    0.9597    0.9135    0.1423
    0.9628    0.9373    0.1265
    0.9691    0.9606    0.1064
    0.9769    0.9839    0.0805


ans =

    0.2422    0.1504    0.6603
    0.2504    0.1650    0.7076
    0.2578    0.1818    0.7511
    0.2647    0.1978    0.7952
    0.2706    0.2147    0.8364
    0.2751    0.2342    0.8710
    0.2783    0.2559    0.8991
    0.2803    0.2782    0.9221
    0.2813    0.3006    0.9414
    0.2810    0.3228    0.9579
    0.2795    0.3447    0.9717
    0.2760    0.3667    0.9829
    0.2699    0.3892    0.9906
    0.2602    0.4123    0.9952
    0.2440    0.4358    0.9988
    0.2206    0.4603    0.9973
    0.1963    0.4847    0.9892
    0.1834    0.5074    0.9798
    0.1786    0.5289    0.9682
    0.1764    0.5499    0.9520
    0.1687    0.5703    0.9359
    0.1540    0.5902    0.9218
    0.1460    0.6091    0.9079
    0.1380    0.6276    0.8973
    0.1248    0.6459    0.8883
    0.1113    0.6635    0.8763
    0.0952    0.6798    0.8598
    0.0689    0.6948    0.8394
    0.0297    0.7082    0.8163
    0.0036    0.7203    0.7917
    0.0067    0.7312    0.7660
    0.0433    0.7411    0.7394
    0.0964    0.7500    0.7120
    0.1408    0.7584    0.6842
    0.1717    0.7670    0.6554
    0.1938    0.7758    0.6251
    0.2161    0.7843    0.5923
    0.2470    0.7918    0.5567
    0.2906    0.7973    0.5188
    0.3406    0.8008    0.4789
    0.3909    0.8029    0.4354
    0.4456    0.8024    0.3909
    0.5044    0.7993    0.3480
    0.5616    0.7942    0.3045
    0.6174    0.7876    0.2612
    0.6720    0.7793    0.2227
    0.7242    0.7698    0.1910
    0.7738    0.7598    0.1646
    0.8203    0.7498    0.1535
    0.8634    0.7406    0.1596
    0.9035    0.7330    0.1774
    0.9393    0.7288    0.2100
    0.9728    0.7298    0.2394
    0.9956    0.7434    0.2371
    0.9970    0.7659    0.2199
    0.9952    0.7893    0.2028
    0.9892    0.8136    0.1885
    0.9786    0.8386    0.1766
    0.9676    0.8639    0.1643
    0.9610    0.8890    0.1537
    0.9597    0.9135    0.1423
    0.9628    0.9373    0.1265
    0.9691    0.9606    0.1064
    0.9769    0.9839    0.0805


ans =

    0.2422    0.1504    0.6603
    0.2504    0.1650    0.7076
    0.2578    0.1818    0.7511
    0.2647    0.1978    0.7952
    0.2706    0.2147    0.8364
    0.2751    0.2342    0.8710
    0.2783    0.2559    0.8991
    0.2803    0.2782    0.9221
    0.2813    0.3006    0.9414
    0.2810    0.3228    0.9579
    0.2795    0.3447    0.9717
    0.2760    0.3667    0.9829
    0.2699    0.3892    0.9906
    0.2602    0.4123    0.9952
    0.2440    0.4358    0.9988
    0.2206    0.4603    0.9973
    0.1963    0.4847    0.9892
    0.1834    0.5074    0.9798
    0.1786    0.5289    0.9682
    0.1764    0.5499    0.9520
    0.1687    0.5703    0.9359
    0.1540    0.5902    0.9218
    0.1460    0.6091    0.9079
    0.1380    0.6276    0.8973
    0.1248    0.6459    0.8883
    0.1113    0.6635    0.8763
    0.0952    0.6798    0.8598
    0.0689    0.6948    0.8394
    0.0297    0.7082    0.8163
    0.0036    0.7203    0.7917
    0.0067    0.7312    0.7660
    0.0433    0.7411    0.7394
    0.0964    0.7500    0.7120
    0.1408    0.7584    0.6842
    0.1717    0.7670    0.6554
    0.1938    0.7758    0.6251
    0.2161    0.7843    0.5923
    0.2470    0.7918    0.5567
    0.2906    0.7973    0.5188
    0.3406    0.8008    0.4789
    0.3909    0.8029    0.4354
    0.4456    0.8024    0.3909
    0.5044    0.7993    0.3480
    0.5616    0.7942    0.3045
    0.6174    0.7876    0.2612
    0.6720    0.7793    0.2227
    0.7242    0.7698    0.1910
    0.7738    0.7598    0.1646
    0.8203    0.7498    0.1535
    0.8634    0.7406    0.1596
    0.9035    0.7330    0.1774
    0.9393    0.7288    0.2100
    0.9728    0.7298    0.2394
    0.9956    0.7434    0.2371
    0.9970    0.7659    0.2199
    0.9952    0.7893    0.2028
    0.9892    0.8136    0.1885
    0.9786    0.8386    0.1766
    0.9676    0.8639    0.1643
    0.9610    0.8890    0.1537
    0.9597    0.9135    0.1423
    0.9628    0.9373    0.1265
    0.9691    0.9606    0.1064
    0.9769    0.9839    0.0805


ans =

    0.2422    0.1504    0.6603
    0.2504    0.1650    0.7076
    0.2578    0.1818    0.7511
    0.2647    0.1978    0.7952
    0.2706    0.2147    0.8364
    0.2751    0.2342    0.8710
    0.2783    0.2559    0.8991
    0.2803    0.2782    0.9221
    0.2813    0.3006    0.9414
    0.2810    0.3228    0.9579
    0.2795    0.3447    0.9717
    0.2760    0.3667    0.9829
    0.2699    0.3892    0.9906
    0.2602    0.4123    0.9952
    0.2440    0.4358    0.9988
    0.2206    0.4603    0.9973
    0.1963    0.4847    0.9892
    0.1834    0.5074    0.9798
    0.1786    0.5289    0.9682
    0.1764    0.5499    0.9520
    0.1687    0.5703    0.9359
    0.1540    0.5902    0.9218
    0.1460    0.6091    0.9079
    0.1380    0.6276    0.8973
    0.1248    0.6459    0.8883
    0.1113    0.6635    0.8763
    0.0952    0.6798    0.8598
    0.0689    0.6948    0.8394
    0.0297    0.7082    0.8163
    0.0036    0.7203    0.7917
    0.0067    0.7312    0.7660
    0.0433    0.7411    0.7394
    0.0964    0.7500    0.7120
    0.1408    0.7584    0.6842
    0.1717    0.7670    0.6554
    0.1938    0.7758    0.6251
    0.2161    0.7843    0.5923
    0.2470    0.7918    0.5567
    0.2906    0.7973    0.5188
    0.3406    0.8008    0.4789
    0.3909    0.8029    0.4354
    0.4456    0.8024    0.3909
    0.5044    0.7993    0.3480
    0.5616    0.7942    0.3045
    0.6174    0.7876    0.2612
    0.6720    0.7793    0.2227
    0.7242    0.7698    0.1910
    0.7738    0.7598    0.1646
    0.8203    0.7498    0.1535
    0.8634    0.7406    0.1596
    0.9035    0.7330    0.1774
    0.9393    0.7288    0.2100
    0.9728    0.7298    0.2394
    0.9956    0.7434    0.2371
    0.9970    0.7659    0.2199
    0.9952    0.7893    0.2028
    0.9892    0.8136    0.1885
    0.9786    0.8386    0.1766
    0.9676    0.8639    0.1643
    0.9610    0.8890    0.1537
    0.9597    0.9135    0.1423
    0.9628    0.9373    0.1265
    0.9691    0.9606    0.1064
    0.9769    0.9839    0.0805


ans =

    0.2422    0.1504    0.6603
    0.2504    0.1650    0.7076
    0.2578    0.1818    0.7511
    0.2647    0.1978    0.7952
    0.2706    0.2147    0.8364
    0.2751    0.2342    0.8710
    0.2783    0.2559    0.8991
    0.2803    0.2782    0.9221
    0.2813    0.3006    0.9414
    0.2810    0.3228    0.9579
    0.2795    0.3447    0.9717
    0.2760    0.3667    0.9829
    0.2699    0.3892    0.9906
    0.2602    0.4123    0.9952
    0.2440    0.4358    0.9988
    0.2206    0.4603    0.9973
    0.1963    0.4847    0.9892
    0.1834    0.5074    0.9798
    0.1786    0.5289    0.9682
    0.1764    0.5499    0.9520
    0.1687    0.5703    0.9359
    0.1540    0.5902    0.9218
    0.1460    0.6091    0.9079
    0.1380    0.6276    0.8973
    0.1248    0.6459    0.8883
    0.1113    0.6635    0.8763
    0.0952    0.6798    0.8598
    0.0689    0.6948    0.8394
    0.0297    0.7082    0.8163
    0.0036    0.7203    0.7917
    0.0067    0.7312    0.7660
    0.0433    0.7411    0.7394
    0.0964    0.7500    0.7120
    0.1408    0.7584    0.6842
    0.1717    0.7670    0.6554
    0.1938    0.7758    0.6251
    0.2161    0.7843    0.5923
    0.2470    0.7918    0.5567
    0.2906    0.7973    0.5188
    0.3406    0.8008    0.4789
    0.3909    0.8029    0.4354
    0.4456    0.8024    0.3909
    0.5044    0.7993    0.3480
    0.5616    0.7942    0.3045
    0.6174    0.7876    0.2612
    0.6720    0.7793    0.2227
    0.7242    0.7698    0.1910
    0.7738    0.7598    0.1646
    0.8203    0.7498    0.1535
    0.8634    0.7406    0.1596
    0.9035    0.7330    0.1774
    0.9393    0.7288    0.2100
    0.9728    0.7298    0.2394
    0.9956    0.7434    0.2371
    0.9970    0.7659    0.2199
    0.9952    0.7893    0.2028
    0.9892    0.8136    0.1885
    0.9786    0.8386    0.1766
    0.9676    0.8639    0.1643
    0.9610    0.8890    0.1537
    0.9597    0.9135    0.1423
    0.9628    0.9373    0.1265
    0.9691    0.9606    0.1064
    0.9769    0.9839    0.0805


ans =

    0.2422    0.1504    0.6603
    0.2504    0.1650    0.7076
    0.2578    0.1818    0.7511
    0.2647    0.1978    0.7952
    0.2706    0.2147    0.8364
    0.2751    0.2342    0.8710
    0.2783    0.2559    0.8991
    0.2803    0.2782    0.9221
    0.2813    0.3006    0.9414
    0.2810    0.3228    0.9579
    0.2795    0.3447    0.9717
    0.2760    0.3667    0.9829
    0.2699    0.3892    0.9906
    0.2602    0.4123    0.9952
    0.2440    0.4358    0.9988
    0.2206    0.4603    0.9973
    0.1963    0.4847    0.9892
    0.1834    0.5074    0.9798
    0.1786    0.5289    0.9682
    0.1764    0.5499    0.9520
    0.1687    0.5703    0.9359
    0.1540    0.5902    0.9218
    0.1460    0.6091    0.9079
    0.1380    0.6276    0.8973
    0.1248    0.6459    0.8883
    0.1113    0.6635    0.8763
    0.0952    0.6798    0.8598
    0.0689    0.6948    0.8394
    0.0297    0.7082    0.8163
    0.0036    0.7203    0.7917
    0.0067    0.7312    0.7660
    0.0433    0.7411    0.7394
    0.0964    0.7500    0.7120
    0.1408    0.7584    0.6842
    0.1717    0.7670    0.6554
    0.1938    0.7758    0.6251
    0.2161    0.7843    0.5923
    0.2470    0.7918    0.5567
    0.2906    0.7973    0.5188
    0.3406    0.8008    0.4789
    0.3909    0.8029    0.4354
    0.4456    0.8024    0.3909
    0.5044    0.7993    0.3480
    0.5616    0.7942    0.3045
    0.6174    0.7876    0.2612
    0.6720    0.7793    0.2227
    0.7242    0.7698    0.1910
    0.7738    0.7598    0.1646
    0.8203    0.7498    0.1535
    0.8634    0.7406    0.1596
    0.9035    0.7330    0.1774
    0.9393    0.7288    0.2100
    0.9728    0.7298    0.2394
    0.9956    0.7434    0.2371
    0.9970    0.7659    0.2199
    0.9952    0.7893    0.2028
    0.9892    0.8136    0.1885
    0.9786    0.8386    0.1766
    0.9676    0.8639    0.1643
    0.9610    0.8890    0.1537
    0.9597    0.9135    0.1423
    0.9628    0.9373    0.1265
    0.9691    0.9606    0.1064
    0.9769    0.9839    0.0805


ans =

    0.2422    0.1504    0.6603
    0.2504    0.1650    0.7076
    0.2578    0.1818    0.7511
    0.2647    0.1978    0.7952
    0.2706    0.2147    0.8364
    0.2751    0.2342    0.8710
    0.2783    0.2559    0.8991
    0.2803    0.2782    0.9221
    0.2813    0.3006    0.9414
    0.2810    0.3228    0.9579
    0.2795    0.3447    0.9717
    0.2760    0.3667    0.9829
    0.2699    0.3892    0.9906
    0.2602    0.4123    0.9952
    0.2440    0.4358    0.9988
    0.2206    0.4603    0.9973
    0.1963    0.4847    0.9892
    0.1834    0.5074    0.9798
    0.1786    0.5289    0.9682
    0.1764    0.5499    0.9520
    0.1687    0.5703    0.9359
    0.1540    0.5902    0.9218
    0.1460    0.6091    0.9079
    0.1380    0.6276    0.8973
    0.1248    0.6459    0.8883
    0.1113    0.6635    0.8763
    0.0952    0.6798    0.8598
    0.0689    0.6948    0.8394
    0.0297    0.7082    0.8163
    0.0036    0.7203    0.7917
    0.0067    0.7312    0.7660
    0.0433    0.7411    0.7394
    0.0964    0.7500    0.7120
    0.1408    0.7584    0.6842
    0.1717    0.7670    0.6554
    0.1938    0.7758    0.6251
    0.2161    0.7843    0.5923
    0.2470    0.7918    0.5567
    0.2906    0.7973    0.5188
    0.3406    0.8008    0.4789
    0.3909    0.8029    0.4354
    0.4456    0.8024    0.3909
    0.5044    0.7993    0.3480
    0.5616    0.7942    0.3045
    0.6174    0.7876    0.2612
    0.6720    0.7793    0.2227
    0.7242    0.7698    0.1910
    0.7738    0.7598    0.1646
    0.8203    0.7498    0.1535
    0.8634    0.7406    0.1596
    0.9035    0.7330    0.1774
    0.9393    0.7288    0.2100
    0.9728    0.7298    0.2394
    0.9956    0.7434    0.2371
    0.9970    0.7659    0.2199
    0.9952    0.7893    0.2028
    0.9892    0.8136    0.1885
    0.9786    0.8386    0.1766
    0.9676    0.8639    0.1643
    0.9610    0.8890    0.1537
    0.9597    0.9135    0.1423
    0.9628    0.9373    0.1265
    0.9691    0.9606    0.1064
    0.9769    0.9839    0.0805


ans =

    0.2422    0.1504    0.6603
    0.2504    0.1650    0.7076
    0.2578    0.1818    0.7511
    0.2647    0.1978    0.7952
    0.2706    0.2147    0.8364
    0.2751    0.2342    0.8710
    0.2783    0.2559    0.8991
    0.2803    0.2782    0.9221
    0.2813    0.3006    0.9414
    0.2810    0.3228    0.9579
    0.2795    0.3447    0.9717
    0.2760    0.3667    0.9829
    0.2699    0.3892    0.9906
    0.2602    0.4123    0.9952
    0.2440    0.4358    0.9988
    0.2206    0.4603    0.9973
    0.1963    0.4847    0.9892
    0.1834    0.5074    0.9798
    0.1786    0.5289    0.9682
    0.1764    0.5499    0.9520
    0.1687    0.5703    0.9359
    0.1540    0.5902    0.9218
    0.1460    0.6091    0.9079
    0.1380    0.6276    0.8973
    0.1248    0.6459    0.8883
    0.1113    0.6635    0.8763
    0.0952    0.6798    0.8598
    0.0689    0.6948    0.8394
    0.0297    0.7082    0.8163
    0.0036    0.7203    0.7917
    0.0067    0.7312    0.7660
    0.0433    0.7411    0.7394
    0.0964    0.7500    0.7120
    0.1408    0.7584    0.6842
    0.1717    0.7670    0.6554
    0.1938    0.7758    0.6251
    0.2161    0.7843    0.5923
    0.2470    0.7918    0.5567
    0.2906    0.7973    0.5188
    0.3406    0.8008    0.4789
    0.3909    0.8029    0.4354
    0.4456    0.8024    0.3909
    0.5044    0.7993    0.3480
    0.5616    0.7942    0.3045
    0.6174    0.7876    0.2612
    0.6720    0.7793    0.2227
    0.7242    0.7698    0.1910
    0.7738    0.7598    0.1646
    0.8203    0.7498    0.1535
    0.8634    0.7406    0.1596
    0.9035    0.7330    0.1774
    0.9393    0.7288    0.2100
    0.9728    0.7298    0.2394
    0.9956    0.7434    0.2371
    0.9970    0.7659    0.2199
    0.9952    0.7893    0.2028
    0.9892    0.8136    0.1885
    0.9786    0.8386    0.1766
    0.9676    0.8639    0.1643
    0.9610    0.8890    0.1537
    0.9597    0.9135    0.1423
    0.9628    0.9373    0.1265
    0.9691    0.9606    0.1064
    0.9769    0.9839    0.0805


ans =

    0.2422    0.1504    0.6603
    0.2504    0.1650    0.7076
    0.2578    0.1818    0.7511
    0.2647    0.1978    0.7952
    0.2706    0.2147    0.8364
    0.2751    0.2342    0.8710
    0.2783    0.2559    0.8991
    0.2803    0.2782    0.9221
    0.2813    0.3006    0.9414
    0.2810    0.3228    0.9579
    0.2795    0.3447    0.9717
    0.2760    0.3667    0.9829
    0.2699    0.3892    0.9906
    0.2602    0.4123    0.9952
    0.2440    0.4358    0.9988
    0.2206    0.4603    0.9973
    0.1963    0.4847    0.9892
    0.1834    0.5074    0.9798
    0.1786    0.5289    0.9682
    0.1764    0.5499    0.9520
    0.1687    0.5703    0.9359
    0.1540    0.5902    0.9218
    0.1460    0.6091    0.9079
    0.1380    0.6276    0.8973
    0.1248    0.6459    0.8883
    0.1113    0.6635    0.8763
    0.0952    0.6798    0.8598
    0.0689    0.6948    0.8394
    0.0297    0.7082    0.8163
    0.0036    0.7203    0.7917
    0.0067    0.7312    0.7660
    0.0433    0.7411    0.7394
    0.0964    0.7500    0.7120
    0.1408    0.7584    0.6842
    0.1717    0.7670    0.6554
    0.1938    0.7758    0.6251
    0.2161    0.7843    0.5923
    0.2470    0.7918    0.5567
    0.2906    0.7973    0.5188
    0.3406    0.8008    0.4789
    0.3909    0.8029    0.4354
    0.4456    0.8024    0.3909
    0.5044    0.7993    0.3480
    0.5616    0.7942    0.3045
    0.6174    0.7876    0.2612
    0.6720    0.7793    0.2227
    0.7242    0.7698    0.1910
    0.7738    0.7598    0.1646
    0.8203    0.7498    0.1535
    0.8634    0.7406    0.1596
    0.9035    0.7330    0.1774
    0.9393    0.7288    0.2100
    0.9728    0.7298    0.2394
    0.9956    0.7434    0.2371
    0.9970    0.7659    0.2199
    0.9952    0.7893    0.2028
    0.9892    0.8136    0.1885
    0.9786    0.8386    0.1766
    0.9676    0.8639    0.1643
    0.9610    0.8890    0.1537
    0.9597    0.9135    0.1423
    0.9628    0.9373    0.1265
    0.9691    0.9606    0.1064
    0.9769    0.9839    0.0805


ans =

    0.2422    0.1504    0.6603
    0.2504    0.1650    0.7076
    0.2578    0.1818    0.7511
    0.2647    0.1978    0.7952
    0.2706    0.2147    0.8364
    0.2751    0.2342    0.8710
    0.2783    0.2559    0.8991
    0.2803    0.2782    0.9221
    0.2813    0.3006    0.9414
    0.2810    0.3228    0.9579
    0.2795    0.3447    0.9717
    0.2760    0.3667    0.9829
    0.2699    0.3892    0.9906
    0.2602    0.4123    0.9952
    0.2440    0.4358    0.9988
    0.2206    0.4603    0.9973
    0.1963    0.4847    0.9892
    0.1834    0.5074    0.9798
    0.1786    0.5289    0.9682
    0.1764    0.5499    0.9520
    0.1687    0.5703    0.9359
    0.1540    0.5902    0.9218
    0.1460    0.6091    0.9079
    0.1380    0.6276    0.8973
    0.1248    0.6459    0.8883
    0.1113    0.6635    0.8763
    0.0952    0.6798    0.8598
    0.0689    0.6948    0.8394
    0.0297    0.7082    0.8163
    0.0036    0.7203    0.7917
    0.0067    0.7312    0.7660
    0.0433    0.7411    0.7394
    0.0964    0.7500    0.7120
    0.1408    0.7584    0.6842
    0.1717    0.7670    0.6554
    0.1938    0.7758    0.6251
    0.2161    0.7843    0.5923
    0.2470    0.7918    0.5567
    0.2906    0.7973    0.5188
    0.3406    0.8008    0.4789
    0.3909    0.8029    0.4354
    0.4456    0.8024    0.3909
    0.5044    0.7993    0.3480
    0.5616    0.7942    0.3045
    0.6174    0.7876    0.2612
    0.6720    0.7793    0.2227
    0.7242    0.7698    0.1910
    0.7738    0.7598    0.1646
    0.8203    0.7498    0.1535
    0.8634    0.7406    0.1596
    0.9035    0.7330    0.1774
    0.9393    0.7288    0.2100
    0.9728    0.7298    0.2394
    0.9956    0.7434    0.2371
    0.9970    0.7659    0.2199
    0.9952    0.7893    0.2028
    0.9892    0.8136    0.1885
    0.9786    0.8386    0.1766
    0.9676    0.8639    0.1643
    0.9610    0.8890    0.1537
    0.9597    0.9135    0.1423
    0.9628    0.9373    0.1265
    0.9691    0.9606    0.1064
    0.9769    0.9839    0.0805

figure, for i = 1:72, hold on, imagesc(squeeze(LRF(i,:,:))), hold off, end;
figure, for i = 1:72, imagesc(squeeze(LRF(i,:,:))), pause(0.2),end;
figure, for i = 1:72, imagesc(squeeze(LRF(i,:,:))), pause(0.5),end;
load('G:\Linearity_Uniformity_Corr\Clinical_GUI\KilledNodeWork\Corr\CorrHead10.mat')
figure, for i = 1:72, imagesc(squeeze(LRF(i,:,:))), pause(0.5),end;
figure, imagesc(squeeze(LRF(73,:,:))),colormap

ans =

    0.2422    0.1504    0.6603
    0.2504    0.1650    0.7076
    0.2578    0.1818    0.7511
    0.2647    0.1978    0.7952
    0.2706    0.2147    0.8364
    0.2751    0.2342    0.8710
    0.2783    0.2559    0.8991
    0.2803    0.2782    0.9221
    0.2813    0.3006    0.9414
    0.2810    0.3228    0.9579
    0.2795    0.3447    0.9717
    0.2760    0.3667    0.9829
    0.2699    0.3892    0.9906
    0.2602    0.4123    0.9952
    0.2440    0.4358    0.9988
    0.2206    0.4603    0.9973
    0.1963    0.4847    0.9892
    0.1834    0.5074    0.9798
    0.1786    0.5289    0.9682
    0.1764    0.5499    0.9520
    0.1687    0.5703    0.9359
    0.1540    0.5902    0.9218
    0.1460    0.6091    0.9079
    0.1380    0.6276    0.8973
    0.1248    0.6459    0.8883
    0.1113    0.6635    0.8763
    0.0952    0.6798    0.8598
    0.0689    0.6948    0.8394
    0.0297    0.7082    0.8163
    0.0036    0.7203    0.7917
    0.0067    0.7312    0.7660
    0.0433    0.7411    0.7394
    0.0964    0.7500    0.7120
    0.1408    0.7584    0.6842
    0.1717    0.7670    0.6554
    0.1938    0.7758    0.6251
    0.2161    0.7843    0.5923
    0.2470    0.7918    0.5567
    0.2906    0.7973    0.5188
    0.3406    0.8008    0.4789
    0.3909    0.8029    0.4354
    0.4456    0.8024    0.3909
    0.5044    0.7993    0.3480
    0.5616    0.7942    0.3045
    0.6174    0.7876    0.2612
    0.6720    0.7793    0.2227
    0.7242    0.7698    0.1910
    0.7738    0.7598    0.1646
    0.8203    0.7498    0.1535
    0.8634    0.7406    0.1596
    0.9035    0.7330    0.1774
    0.9393    0.7288    0.2100
    0.9728    0.7298    0.2394
    0.9956    0.7434    0.2371
    0.9970    0.7659    0.2199
    0.9952    0.7893    0.2028
    0.9892    0.8136    0.1885
    0.9786    0.8386    0.1766
    0.9676    0.8639    0.1643
    0.9610    0.8890    0.1537
    0.9597    0.9135    0.1423
    0.9628    0.9373    0.1265
    0.9691    0.9606    0.1064
    0.9769    0.9839    0.0805

close all
